# Left column = Time after Trigger in seconds & Right column = # Counts / Exposure = Flux per cm² s
-299.500000 0.169537
-298.500000 0.242114
-297.500000 0.243409
-296.500000 0.218594
-295.500000 0.240341
-294.500000 0.194034
-293.500000 0.242924
-292.500000 0.290761
-291.500000 0.291160
-290.500000 0.192849
-289.500000 0.288676
-288.500000 0.362692
-287.500000 0.313353
-286.500000 0.216917
-285.500000 0.217232
-284.500000 0.265527
-283.500000 0.435341
-282.500000 0.193314
-281.500000 0.388792
-280.500000 0.194623
-279.500000 0.170509
-278.500000 0.362915
-277.500000 0.386011
-276.500000 0.144597
-275.500000 0.193118
-274.500000 0.218265
-273.500000 0.266224
-272.500000 0.315115
-271.500000 0.240853
-270.500000 0.267833
-269.500000 0.314675
-268.500000 0.386187
-267.500000 0.265733
-266.500000 0.265771
-265.500000 0.241722
-264.500000 0.458035
-263.500000 0.266014
-262.500000 0.436304
-261.500000 0.313775
-260.500000 0.457128
-259.500000 0.288947
-258.500000 0.288861
-257.500000 0.383704
-256.500000 0.265311
-255.500000 0.144239
-254.500000 0.169545
-253.500000 0.120824
-252.500000 0.289809
-251.500000 0.315426
-250.500000 0.289001
-249.500000 0.169056
-248.500000 0.335384
-247.500000 0.072558
-246.500000 0.385576
-245.500000 0.338053
-244.500000 0.216579
-243.500000 0.287414
-242.500000 0.289961
-241.500000 0.145833
-240.500000 0.434318
-239.500000 0.193003
-238.500000 0.219011
-237.500000 0.192288
-236.500000 0.191229
-235.500000 0.097046
-234.500000 0.240423
-233.500000 0.361471
-232.500000 0.312653
-231.500000 0.337608
-230.500000 0.192528
-229.500000 0.290041
-228.500000 0.239588
-227.500000 0.168552
-226.500000 0.192102
-225.500000 0.216314
-224.500000 0.241402
-223.500000 0.290159
-222.500000 0.191955
-221.500000 0.168802
-220.500000 0.263523
-219.500000 0.168667
-218.500000 0.385916
-217.500000 0.312404
-216.500000 0.289490
-215.500000 0.410553
-214.500000 0.310545
-213.500000 0.215610
-212.500000 0.288216
-211.500000 0.338072
-210.500000 0.334902
-209.500000 0.169014
-208.500000 0.289398
-207.500000 0.288519
-206.500000 0.406045
-205.500000 0.573646
-204.500000 0.216866
-203.500000 0.192886
-202.500000 0.144349
-201.500000 0.266249
-200.500000 0.240335
-199.500000 0.167926
-198.500000 0.191553
-197.500000 0.190868
-196.500000 0.311076
-195.500000 0.215060
-194.500000 0.262310
-193.500000 0.336496
-192.500000 0.241200
-191.500000 0.240189
-190.500000 0.190835
-189.500000 0.359347
-188.500000 0.312544
-187.500000 0.239492
-186.500000 0.119327
-185.500000 0.286371
-184.500000 0.237759
-183.500000 0.168122
-182.500000 0.216631
-181.500000 0.071936
-180.500000 0.310753
-179.500000 0.240321
-178.500000 0.311551
-177.500000 0.335365
-176.500000 0.143736
-175.500000 0.215569
-174.500000 0.334404
-173.500000 0.358798
-172.500000 0.240114
-171.500000 0.287910
-170.500000 0.191336
-169.500000 0.287881
-168.500000 0.238585
-167.500000 0.095741
-166.500000 0.429053
-165.500000 0.239928
-164.500000 0.238266
-163.500000 0.357722
-162.500000 0.214636
-161.500000 0.167459
-160.500000 0.167389
-159.500000 0.119525
-158.500000 0.261973
-157.500000 0.215442
-156.500000 0.358532
-155.500000 0.383106
-154.500000 0.215160
-153.500000 0.286368
-152.500000 0.430320
-151.500000 0.167531
-150.500000 0.167602
-149.500000 0.334605
-148.500000 0.215046
-147.500000 0.215982
-146.500000 0.285710
-145.500000 0.263773
-144.500000 0.262268
-143.500000 0.309576
-142.500000 0.142675
-141.500000 0.383140
-140.500000 0.165757
-139.500000 0.095547
-138.500000 0.239108
-137.500000 0.213434
-136.500000 0.215733
-135.500000 0.190365
-134.500000 0.237419
-133.500000 0.167584
-132.500000 0.384084
-131.500000 0.191205
-130.500000 0.238185
-129.500000 0.286109
-128.500000 0.261325
-127.500000 0.262488
-126.500000 0.284715
-125.500000 0.189477
-124.500000 0.309962
-123.500000 0.262630
-122.500000 0.334819
-121.500000 0.403673
-120.500000 0.310200
-119.500000 0.166613
-118.500000 0.262707
-117.500000 0.262704
-116.500000 0.260770
-115.500000 0.405227
-114.500000 0.166688
-113.500000 0.308702
-112.500000 0.286209
-111.500000 0.119422
-110.500000 0.309312
-109.500000 0.309151
-108.500000 0.309781
-107.500000 0.334299
-106.500000 0.071057
-105.500000 0.238996
-104.500000 0.403660
-103.500000 0.214704
-102.500000 0.285825
-101.500000 0.190258
-100.500000 0.307859
-99.500000 0.309834
-98.500000 0.285397
-97.500000 0.166361
-96.500000 0.383976
-95.500000 0.214100
-94.500000 0.213293
-93.500000 0.381216
-92.500000 0.261752
-91.500000 0.334136
-90.500000 0.214600
-89.500000 0.212985
-88.500000 0.166387
-87.500000 0.286285
-86.500000 0.332005
-85.500000 0.190071
-84.500000 0.215030
-83.500000 0.286662
-82.500000 0.357975
-81.500000 0.285792
-80.500000 0.142234
-79.500000 0.166249
-78.500000 0.310266
-77.500000 0.355819
-76.500000 0.332780
-75.500000 0.263144
-74.500000 0.356075
-73.500000 0.284387
-72.500000 0.189563
-71.500000 0.260880
-70.500000 0.236799
-69.500000 0.309024
-68.500000 0.285553
-67.500000 0.356431
-66.500000 0.262589
-65.500000 0.283740
-64.500000 0.213071
-63.500000 0.284702
-62.500000 0.332718
-61.500000 0.283670
-60.500000 0.285971
-59.500000 0.236701
-58.500000 0.214068
-57.500000 0.311193
-56.500000 0.165877
-55.500000 0.142634
-54.500000 0.237259
-53.500000 0.310326
-52.500000 0.214460
-51.500000 0.308953
-50.500000 0.166385
-49.500000 0.353670
-48.500000 0.236636
-47.500000 0.284082
-46.500000 0.260115
-45.500000 0.189928
-44.500000 0.308496
-43.500000 0.236026
-42.500000 0.261237
-41.500000 0.118604
-40.500000 0.378884
-39.500000 0.095011
-38.500000 0.237902
-37.500000 0.238978
-36.500000 0.212791
-35.500000 0.284602
-34.500000 0.166413
-33.500000 0.261776
-32.500000 0.332156
-31.500000 0.332658
-30.500000 0.261538
-29.500000 0.496503
-28.500000 0.189020
-27.500000 0.426362
-26.500000 0.260010
-25.500000 0.307098
-24.500000 0.404783
-23.500000 0.284863
-22.500000 0.095155
-21.500000 0.213339
-20.500000 0.332320
-19.500000 0.236655
-18.500000 0.308723
-17.500000 0.117590
-16.500000 0.213463
-15.500000 0.307547
-14.500000 0.238590
-13.500000 0.142390
-12.500000 0.307093
-11.500000 0.284305
-10.500000 0.142360
-9.500000 0.236490
-8.500000 0.165785
-7.500000 0.191017
-6.500000 0.189456
-5.500000 0.141810
-4.500000 0.236810
-3.500000 0.235106
-2.500000 0.212741
-1.500000 0.282847
-0.500000 0.284068
0.500000 0.285680
1.500000 0.284401
2.500000 0.829986
3.500000 1.000000
4.500000 0.521965
5.500000 0.446881
6.500000 0.354636
7.500000 0.259409
8.500000 0.331647
9.500000 0.307122
10.500000 0.284523
11.500000 0.260234
12.500000 0.235945
13.500000 0.305418
14.500000 0.236122
15.500000 0.212441
16.500000 0.261468
17.500000 0.262085
18.500000 0.259488
19.500000 0.259668
20.500000 0.236205
21.500000 0.189506
22.500000 0.236269
23.500000 0.307106
24.500000 0.213026
25.500000 0.188889
26.500000 0.117330
27.500000 0.211792
28.500000 0.141716
29.500000 0.282881
30.500000 0.164763
31.500000 0.378394
32.500000 0.400424
33.500000 0.142277
34.500000 0.118225
35.500000 0.142456
36.500000 0.308163
37.500000 0.259844
38.500000 0.307422
39.500000 0.212968
40.500000 0.284107
41.500000 0.284015
42.500000 0.141534
43.500000 0.236977
44.500000 0.117907
45.500000 0.212484
46.500000 0.212318
47.500000 0.235346
48.500000 0.211594
49.500000 0.281668
50.500000 0.213104
51.500000 0.165390
52.500000 0.047324
53.500000 0.189361
54.500000 0.211552
55.500000 0.165334
56.500000 0.212139
57.500000 0.236310
58.500000 0.259210
59.500000 0.379415
60.500000 0.165122
61.500000 0.141548
62.500000 0.141092
63.500000 0.308703
64.500000 0.188516
65.500000 0.187950
66.500000 0.118516
67.500000 0.259186
68.500000 0.235698
69.500000 0.190033
70.500000 0.259585
71.500000 0.211165
72.500000 0.118214
73.500000 0.259635
74.500000 0.306711
75.500000 0.258838
76.500000 0.164696
77.500000 0.190182
78.500000 0.166403
79.500000 0.141686
80.500000 0.235761
81.500000 0.258458
82.500000 0.211901
83.500000 0.259110
84.500000 0.210843
85.500000 0.352867
86.500000 0.212170
87.500000 0.330131
88.500000 0.330355
89.500000 0.234878
90.500000 0.164628
91.500000 0.164546
92.500000 0.283974
93.500000 0.236709
94.500000 0.283167
95.500000 0.282423
96.500000 0.189588
97.500000 0.187692
98.500000 0.235074
99.500000 0.188903
100.500000 0.236759
101.500000 0.305223
102.500000 0.165016
103.500000 0.328812
104.500000 0.188087
105.500000 0.379194
106.500000 0.187239
107.500000 0.234769
108.500000 0.188073
109.500000 0.236888
110.500000 0.188415
111.500000 0.140942
112.500000 0.212926
113.500000 0.165051
114.500000 0.306182
115.500000 0.212724
116.500000 0.163650
117.500000 0.235741
118.500000 0.211047
119.500000 0.234255
120.500000 0.212952
121.500000 0.187730
122.500000 0.308023
123.500000 0.211595
124.500000 0.235887
125.500000 0.188650
126.500000 0.164206
127.500000 0.422960
128.500000 0.211792
129.500000 0.257903
130.500000 0.234823
131.500000 0.306161
132.500000 0.211147
133.500000 0.304533
134.500000 0.164744
135.500000 0.210535
136.500000 0.283049
137.500000 0.210927
138.500000 0.469651
139.500000 0.164717
140.500000 0.281772
141.500000 0.188895
142.500000 0.236142
143.500000 0.352080
144.500000 0.117736
145.500000 0.164465
146.500000 0.188648
147.500000 0.234469
148.500000 0.164965
149.500000 0.234374
150.500000 0.117809
151.500000 0.187561
152.500000 0.164190
153.500000 0.189696
154.500000 0.187693
155.500000 0.423572
156.500000 0.307383
157.500000 0.211009
158.500000 0.211894
159.500000 0.330091
160.500000 0.260056
161.500000 0.164714
162.500000 0.117636
163.500000 0.212437
164.500000 0.211953
165.500000 0.212198
166.500000 0.282050
167.500000 0.212218
168.500000 0.117629
169.500000 0.283590
170.500000 0.189695
171.500000 0.165688
172.500000 0.329407
173.500000 0.282140
174.500000 0.351945
175.500000 0.236740
176.500000 0.211761
177.500000 0.141688
178.500000 0.094326
179.500000 0.188177
180.500000 0.305777
181.500000 0.187403
182.500000 0.331420
183.500000 0.259349
184.500000 0.211665
185.500000 0.141273
186.500000 0.351605
187.500000 0.165980
188.500000 0.188908
189.500000 0.118406
190.500000 0.188912
191.500000 0.282977
192.500000 0.282530
193.500000 0.117611
194.500000 0.213080
195.500000 0.118117
196.500000 0.047114
197.500000 0.187260
198.500000 0.142382
199.500000 0.261381
200.500000 0.399057
201.500000 0.095139
202.500000 0.284419
203.500000 0.142256
204.500000 0.071042
205.500000 0.094298
206.500000 0.117415
207.500000 0.259449
208.500000 0.283618
209.500000 0.235506
210.500000 0.238138
211.500000 0.405195
212.500000 0.306417
213.500000 0.165871
214.500000 0.236925
215.500000 0.355346
216.500000 0.237262
217.500000 0.261205
218.500000 0.282812
219.500000 0.331743
220.500000 0.189760
221.500000 0.212954
222.500000 0.141364
223.500000 0.164833
224.500000 0.190057
225.500000 0.332240
226.500000 0.118724
227.500000 0.212320
228.500000 0.356261
229.500000 0.212378
230.500000 0.308076
231.500000 0.260321
232.500000 0.236866
233.500000 0.189742
234.500000 0.308737
235.500000 0.189054
236.500000 0.118690
237.500000 0.235040
238.500000 0.306688
239.500000 0.142134
240.500000 0.213340
241.500000 0.283467
242.500000 0.118563
243.500000 0.258941
244.500000 0.212694
245.500000 0.117717
246.500000 0.188823
247.500000 0.141701
248.500000 0.094306
249.500000 0.189151
250.500000 0.211452
251.500000 0.212021
252.500000 0.258130
253.500000 0.118053
254.500000 0.259662
255.500000 0.283684
256.500000 0.285731
257.500000 0.117757
258.500000 0.260255
259.500000 0.212437
260.500000 0.234863
261.500000 0.237555
262.500000 0.118753
263.500000 0.141329
264.500000 0.117781
265.500000 0.164800
266.500000 0.142043
267.500000 0.213433
268.500000 0.070762
269.500000 0.212891
270.500000 0.164581
271.500000 0.211376
272.500000 0.188653
273.500000 0.142382
274.500000 0.236995
275.500000 0.213963
276.500000 0.283930
277.500000 0.259540
278.500000 0.070963
279.500000 0.332082
280.500000 0.212622
281.500000 0.118441
282.500000 0.236232
283.500000 0.188175
284.500000 0.306339
285.500000 0.330825
286.500000 0.260551
287.500000 0.119305
288.500000 0.261038
289.500000 0.190059
290.500000 0.353761
291.500000 0.260238
292.500000 0.213055
293.500000 0.212323
294.500000 0.237732
295.500000 0.236878
296.500000 0.260428
297.500000 0.189004
298.500000 0.376334
299.500000 0.330604
