# Left column = Time after Trigger in seconds & Right column = # Counts / Exposure = Flux per cm² s
-299.500000 0.102513
-298.500000 0.113168
-297.500000 0.110885
-296.500000 0.133123
-295.500000 0.126847
-294.500000 0.128784
-293.500000 0.138721
-292.500000 0.127732
-291.500000 0.148316
-290.500000 0.162476
-289.500000 0.111301
-288.500000 0.153256
-287.500000 0.195336
-286.500000 0.119289
-285.500000 0.120128
-284.500000 0.122683
-283.500000 0.125622
-282.500000 0.115263
-281.500000 0.165903
-280.500000 0.120480
-279.500000 0.130511
-278.500000 0.125140
-277.500000 0.168966
-276.500000 0.142864
-275.500000 0.119224
-274.500000 0.133806
-273.500000 0.160338
-272.500000 0.181441
-271.500000 0.143313
-270.500000 0.146117
-269.500000 0.115092
-268.500000 0.145865
-267.500000 0.114442
-266.500000 0.161362
-265.500000 0.158339
-264.500000 0.144273
-263.500000 0.122321
-262.500000 0.171618
-261.500000 0.108814
-260.500000 0.129037
-259.500000 0.122558
-258.500000 0.117442
-257.500000 0.163379
-256.500000 0.131587
-255.500000 0.099839
-254.500000 0.134294
-253.500000 0.172357
-252.500000 0.117768
-251.500000 0.126681
-250.500000 0.148700
-249.500000 0.149255
-248.500000 0.140394
-247.500000 0.180148
-246.500000 0.153933
-245.500000 0.122586
-244.500000 0.138118
-243.500000 0.134466
-242.500000 0.120700
-241.500000 0.165471
-240.500000 0.143833
-239.500000 0.130229
-238.500000 0.160097
-237.500000 0.117692
-236.500000 0.094777
-235.500000 0.168898
-234.500000 0.166924
-233.500000 0.120998
-232.500000 0.115109
-231.500000 0.129320
-230.500000 0.125612
-229.500000 0.184987
-228.500000 0.135242
-227.500000 0.129658
-226.500000 0.141754
-225.500000 0.156242
-224.500000 0.138218
-223.500000 0.138184
-222.500000 0.135720
-221.500000 0.145070
-220.500000 0.137694
-219.500000 0.152293
-218.500000 0.138362
-217.500000 0.132171
-216.500000 0.112850
-215.500000 0.158540
-214.500000 0.135381
-213.500000 0.132587
-212.500000 0.145636
-211.500000 0.103445
-210.500000 0.104197
-209.500000 0.141101
-208.500000 0.127831
-207.500000 0.153615
-206.500000 0.125008
-205.500000 0.135693
-204.500000 0.179408
-203.500000 0.171603
-202.500000 0.159424
-201.500000 0.164140
-200.500000 0.165860
-199.500000 0.145723
-198.500000 0.150874
-197.500000 0.139276
-196.500000 0.133184
-195.500000 0.125053
-194.500000 0.136876
-193.500000 0.159174
-192.500000 0.162018
-191.500000 0.122130
-190.500000 0.158418
-189.500000 0.161443
-188.500000 0.130583
-187.500000 0.157380
-186.500000 0.203535
-185.500000 0.170322
-184.500000 0.138843
-183.500000 0.162587
-182.500000 0.139560
-181.500000 0.122327
-180.500000 0.154371
-179.500000 0.124530
-178.500000 0.149237
-177.500000 0.154819
-176.500000 0.142356
-175.500000 0.145605
-174.500000 0.118614
-173.500000 0.145562
-172.500000 0.164311
-171.500000 0.111302
-170.500000 0.179971
-169.500000 0.132207
-168.500000 0.167267
-167.500000 0.136768
-166.500000 0.166136
-165.500000 0.139671
-164.500000 0.133046
-163.500000 0.133277
-162.500000 0.148445
-161.500000 0.134287
-160.500000 0.155432
-159.500000 0.155776
-158.500000 0.134124
-157.500000 0.151934
-156.500000 0.167567
-155.500000 0.151722
-154.500000 0.189277
-153.500000 0.169393
-152.500000 0.145030
-151.500000 0.179118
-150.500000 0.151737
-149.500000 0.136904
-148.500000 0.155424
-147.500000 0.152183
-146.500000 0.172981
-145.500000 0.170699
-144.500000 0.171698
-143.500000 0.157206
-142.500000 0.199342
-141.500000 0.130936
-140.500000 0.198364
-139.500000 0.154456
-138.500000 0.110916
-137.500000 0.159900
-136.500000 0.158092
-135.500000 0.126206
-134.500000 0.157874
-133.500000 0.129134
-132.500000 0.152259
-131.500000 0.157074
-130.500000 0.128942
-129.500000 0.181267
-128.500000 0.134254
-127.500000 0.143403
-126.500000 0.159344
-125.500000 0.179515
-124.500000 0.141308
-123.500000 0.169811
-122.500000 0.108183
-121.500000 0.134885
-120.500000 0.170486
-119.500000 0.198929
-118.500000 0.150062
-117.500000 0.179539
-116.500000 0.137201
-115.500000 0.162765
-114.500000 0.164338
-113.500000 0.159178
-112.500000 0.157078
-111.500000 0.176515
-110.500000 0.129697
-109.500000 0.132860
-108.500000 0.141194
-107.500000 0.222140
-106.500000 0.155416
-105.500000 0.146521
-104.500000 0.139353
-103.500000 0.131225
-102.500000 0.190752
-101.500000 0.131967
-100.500000 0.166658
-99.500000 0.213449
-98.500000 0.184972
-97.500000 0.171196
-96.500000 0.170696
-95.500000 0.152273
-94.500000 0.155804
-93.500000 0.139204
-92.500000 0.123352
-91.500000 0.159337
-90.500000 0.119771
-89.500000 0.164960
-88.500000 0.171554
-87.500000 0.126843
-86.500000 0.149804
-85.500000 0.166020
-84.500000 0.144038
-83.500000 0.156755
-82.500000 0.215100
-81.500000 0.157775
-80.500000 0.145466
-79.500000 0.186761
-78.500000 0.164801
-77.500000 0.157364
-76.500000 0.153089
-75.500000 0.138371
-74.500000 0.112855
-73.500000 0.157609
-72.500000 0.162313
-71.500000 0.179405
-70.500000 0.123564
-69.500000 0.237141
-68.500000 0.145275
-67.500000 0.175074
-66.500000 0.123649
-65.500000 0.154955
-64.500000 0.156717
-63.500000 0.198386
-62.500000 0.148121
-61.500000 0.133903
-60.500000 0.129855
-59.500000 0.148536
-58.500000 0.148716
-57.500000 0.162465
-56.500000 0.174482
-55.500000 0.124712
-54.500000 0.150143
-53.500000 0.132960
-52.500000 0.198385
-51.500000 0.165352
-50.500000 0.174982
-49.500000 0.167466
-48.500000 0.199254
-47.500000 0.151512
-46.500000 0.186578
-45.500000 0.130839
-44.500000 0.143565
-43.500000 0.180384
-42.500000 0.151754
-41.500000 0.216364
-40.500000 0.131368
-39.500000 0.148427
-38.500000 0.124695
-37.500000 0.206506
-36.500000 0.154131
-35.500000 0.130623
-34.500000 0.136249
-33.500000 0.166833
-32.500000 0.151898
-31.500000 0.155561
-30.500000 0.173557
-29.500000 0.143958
-28.500000 0.164631
-27.500000 0.156393
-26.500000 0.140125
-25.500000 0.177989
-24.500000 0.177912
-23.500000 0.201822
-22.500000 0.151065
-21.500000 0.134456
-20.500000 0.143620
-19.500000 0.167509
-18.500000 0.139659
-17.500000 0.173497
-16.500000 0.170885
-15.500000 0.169479
-14.500000 0.182162
-13.500000 0.169867
-12.500000 0.158194
-11.500000 0.194659
-10.500000 0.182049
-9.500000 0.211736
-8.500000 0.139959
-7.500000 0.183129
-6.500000 0.143489
-5.500000 0.149646
-4.500000 0.162178
-3.500000 0.155297
-2.500000 0.161003
-1.500000 0.158190
-0.500000 0.306663
0.500000 0.351165
1.500000 0.213292
2.500000 0.156407
3.500000 0.176482
4.500000 0.199670
5.500000 0.365070
6.500000 0.747492
7.500000 0.705534
8.500000 0.835283
9.500000 1.000000
10.500000 0.786399
11.500000 0.438878
12.500000 0.312792
13.500000 0.375217
14.500000 0.311904
15.500000 0.291936
16.500000 0.283226
17.500000 0.283704
18.500000 0.267701
19.500000 0.253199
20.500000 0.225728
21.500000 0.275892
22.500000 0.254241
23.500000 0.248938
24.500000 0.233174
25.500000 0.238008
26.500000 0.203755
27.500000 0.197069
28.500000 0.195228
29.500000 0.200678
30.500000 0.214632
31.500000 0.274846
32.500000 0.299205
33.500000 0.217313
34.500000 0.270083
35.500000 0.197740
36.500000 0.200472
37.500000 0.222079
38.500000 0.203755
39.500000 0.225503
40.500000 0.204023
41.500000 0.193809
42.500000 0.194589
43.500000 0.212752
44.500000 0.194371
45.500000 0.176806
46.500000 0.163523
47.500000 0.183340
48.500000 0.199563
49.500000 0.201054
50.500000 0.217759
51.500000 0.207067
52.500000 0.162137
53.500000 0.237689
54.500000 0.247684
55.500000 0.192022
56.500000 0.223428
57.500000 0.201518
58.500000 0.239090
59.500000 0.193886
60.500000 0.233620
61.500000 0.141969
62.500000 0.166452
63.500000 0.178352
64.500000 0.252896
65.500000 0.226927
66.500000 0.192207
67.500000 0.235252
68.500000 0.253298
69.500000 0.172010
70.500000 0.214791
71.500000 0.182502
72.500000 0.228276
73.500000 0.186719
74.500000 0.201712
75.500000 0.269151
76.500000 0.191080
77.500000 0.202357
78.500000 0.214611
79.500000 0.205450
80.500000 0.213362
81.500000 0.191846
82.500000 0.137914
83.500000 0.255936
84.500000 0.252450
85.500000 0.188031
86.500000 0.193756
87.500000 0.228785
88.500000 0.231002
89.500000 0.202693
90.500000 0.207572
91.500000 0.162061
92.500000 0.255633
93.500000 0.204202
94.500000 0.237294
95.500000 0.227336
96.500000 0.228192
97.500000 0.206165
98.500000 0.215941
99.500000 0.250139
100.500000 0.256108
101.500000 0.189792
102.500000 0.200577
103.500000 0.191596
104.500000 0.187494
105.500000 0.179676
106.500000 0.233631
107.500000 0.179573
108.500000 0.159408
109.500000 0.200033
110.500000 0.160734
111.500000 0.190579
112.500000 0.167473
113.500000 0.221404
114.500000 0.200169
115.500000 0.206184
116.500000 0.208889
117.500000 0.173192
118.500000 0.222651
119.500000 0.161301
120.500000 0.199941
121.500000 0.237407
122.500000 0.232889
123.500000 0.221664
124.500000 0.214265
125.500000 0.235822
126.500000 0.198619
127.500000 0.248985
128.500000 0.175470
129.500000 0.195856
130.500000 0.145536
131.500000 0.200609
132.500000 0.216426
133.500000 0.212300
134.500000 0.230700
135.500000 0.194951
136.500000 0.203813
137.500000 0.217770
138.500000 0.138603
139.500000 0.218302
140.500000 0.257333
141.500000 0.189011
142.500000 0.209244
143.500000 0.175667
144.500000 0.199643
145.500000 0.200047
146.500000 0.175421
147.500000 0.207067
148.500000 0.220016
149.500000 0.213308
150.500000 0.198494
151.500000 0.202984
152.500000 0.217916
153.500000 0.239241
154.500000 0.160794
155.500000 0.238418
156.500000 0.184358
157.500000 0.215894
158.500000 0.229252
159.500000 0.163081
160.500000 0.240256
161.500000 0.259059
162.500000 0.254250
163.500000 0.256375
164.500000 0.213228
165.500000 0.201073
166.500000 0.146838
167.500000 0.212385
168.500000 0.220270
169.500000 0.248068
170.500000 0.161213
171.500000 0.271515
172.500000 0.197064
173.500000 0.191368
174.500000 0.233792
175.500000 0.239644
176.500000 0.205249
177.500000 0.196860
178.500000 0.217172
179.500000 0.213565
180.500000 0.151997
181.500000 0.247089
182.500000 0.201443
183.500000 0.201945
184.500000 0.253370
185.500000 0.206403
186.500000 0.183349
187.500000 0.186206
188.500000 0.166489
189.500000 0.262870
190.500000 0.202792
191.500000 0.230954
192.500000 0.201404
193.500000 0.218785
194.500000 0.199108
195.500000 0.209576
196.500000 0.235350
197.500000 0.205767
198.500000 0.224038
199.500000 0.213850
200.500000 0.250262
201.500000 0.229222
202.500000 0.255045
203.500000 0.215819
204.500000 0.213232
205.500000 0.174103
206.500000 0.220864
207.500000 0.194243
208.500000 0.242611
209.500000 0.178252
210.500000 0.221008
211.500000 0.224564
212.500000 0.219226
213.500000 0.207945
214.500000 0.218028
215.500000 0.204044
216.500000 0.231748
217.500000 0.186764
218.500000 0.189942
219.500000 0.175432
220.500000 0.206928
221.500000 0.171078
222.500000 0.197831
223.500000 0.190868
224.500000 0.220642
225.500000 0.263809
226.500000 0.183781
227.500000 0.199421
228.500000 0.185690
229.500000 0.204967
230.500000 0.230675
231.500000 0.203583
232.500000 0.205983
233.500000 0.160310
234.500000 0.195127
235.500000 0.188808
236.500000 0.201795
237.500000 0.229288
238.500000 0.242087
239.500000 0.207455
240.500000 0.197980
241.500000 0.238636
242.500000 0.218429
243.500000 0.185927
244.500000 0.215416
245.500000 0.219446
246.500000 0.206807
247.500000 0.237029
248.500000 0.206763
249.500000 0.239923
250.500000 0.221954
251.500000 0.189294
252.500000 0.217698
253.500000 0.207186
254.500000 0.179473
255.500000 0.224584
256.500000 0.161488
257.500000 0.200283
258.500000 0.201229
259.500000 0.260545
260.500000 0.229839
261.500000 0.188394
262.500000 0.191207
263.500000 0.182192
264.500000 0.196548
265.500000 0.216370
266.500000 0.204307
267.500000 0.199591
268.500000 0.179666
269.500000 0.167673
270.500000 0.187017
271.500000 0.197571
272.500000 0.182955
273.500000 0.151410
274.500000 0.133116
275.500000 0.213197
276.500000 0.169357
277.500000 0.179966
278.500000 0.233674
279.500000 0.202551
280.500000 0.194627
281.500000 0.175638
282.500000 0.169384
283.500000 0.182748
284.500000 0.192661
285.500000 0.189752
286.500000 0.197215
287.500000 0.179026
288.500000 0.133364
289.500000 0.164069
290.500000 0.169658
291.500000 0.172672
292.500000 0.249495
293.500000 0.206687
294.500000 0.198869
295.500000 0.248270
296.500000 0.182152
297.500000 0.156836
298.500000 0.172166
299.500000 0.163446
