# Left column = Time after Trigger in seconds & Right column = # Counts / Exposure = Flux per cm² s
-299.500000 0.165192
-298.500000 0.055386
-297.500000 0.000000
-296.500000 0.193938
-295.500000 0.110878
-294.500000 0.083464
-293.500000 0.000000
-292.500000 0.083779
-291.500000 0.166774
-290.500000 0.138217
-289.500000 0.138869
-288.500000 0.083017
-287.500000 0.055749
-286.500000 0.083819
-285.500000 0.139151
-284.500000 0.167021
-283.500000 0.110879
-282.500000 0.112525
-281.500000 0.139738
-280.500000 0.055252
-279.500000 0.055387
-278.500000 0.056296
-277.500000 0.139006
-276.500000 0.000000
-275.500000 0.083727
-274.500000 0.168298
-273.500000 0.055660
-272.500000 0.027777
-271.500000 0.111116
-270.500000 0.084015
-269.500000 0.083049
-268.500000 0.083597
-267.500000 0.111731
-266.500000 0.083871
-265.500000 0.083808
-264.500000 0.056161
-263.500000 0.083738
-262.500000 0.167057
-261.500000 0.055515
-260.500000 0.111447
-259.500000 0.139690
-258.500000 0.055937
-257.500000 0.055856
-256.500000 0.166481
-255.500000 0.196269
-254.500000 0.027904
-253.500000 0.000000
-252.500000 0.166829
-251.500000 0.168152
-250.500000 0.084261
-249.500000 0.056114
-248.500000 0.083963
-247.500000 0.028116
-246.500000 0.112411
-245.500000 0.168778
-244.500000 0.111884
-243.500000 0.112293
-242.500000 0.084031
-241.500000 0.055737
-240.500000 0.140535
-239.500000 0.111576
-238.500000 0.141166
-237.500000 0.083991
-236.500000 0.111567
-235.500000 0.084597
-234.500000 0.084040
-233.500000 0.084115
-232.500000 0.139979
-231.500000 0.112894
-230.500000 0.028039
-229.500000 0.223343
-228.500000 0.226574
-227.500000 0.140763
-226.500000 0.055578
-225.500000 0.056213
-224.500000 0.197195
-223.500000 0.055896
-222.500000 0.028110
-221.500000 0.111582
-220.500000 0.111825
-219.500000 0.111916
-218.500000 0.140897
-217.500000 0.085019
-216.500000 0.282438
-215.500000 0.140761
-214.500000 0.223711
-213.500000 0.084185
-212.500000 0.028187
-211.500000 0.055859
-210.500000 0.197179
-209.500000 0.112491
-208.500000 0.084354
-207.500000 0.056092
-206.500000 0.254652
-205.500000 0.140231
-204.500000 0.056503
-203.500000 0.028015
-202.500000 0.112424
-201.500000 0.140644
-200.500000 0.084128
-199.500000 0.140442
-198.500000 0.083835
-197.500000 0.083836
-196.500000 0.139469
-195.500000 0.084210
-194.500000 0.113046
-193.500000 0.140461
-192.500000 0.083932
-191.500000 0.140634
-190.500000 0.139951
-189.500000 0.112099
-188.500000 0.056097
-187.500000 0.112888
-186.500000 0.139726
-185.500000 0.112404
-184.500000 0.167716
-183.500000 0.197258
-182.500000 0.085003
-181.500000 0.141073
-180.500000 0.112288
-179.500000 0.167772
-178.500000 0.196492
-177.500000 0.223979
-176.500000 0.085078
-175.500000 0.225379
-174.500000 0.112066
-173.500000 0.084766
-172.500000 0.168827
-171.500000 0.197266
-170.500000 0.198366
-169.500000 0.028295
-168.500000 0.196275
-167.500000 0.141298
-166.500000 0.226834
-165.500000 0.056185
-164.500000 0.140767
-163.500000 0.112431
-162.500000 0.226164
-161.500000 0.084476
-160.500000 0.169356
-159.500000 0.028350
-158.500000 0.085105
-157.500000 0.113889
-156.500000 0.113483
-155.500000 0.113504
-154.500000 0.084385
-153.500000 0.113174
-152.500000 0.113512
-151.500000 0.225623
-150.500000 0.170037
-149.500000 0.141022
-148.500000 0.084439
-147.500000 0.084044
-146.500000 0.141305
-145.500000 0.112409
-144.500000 0.169016
-143.500000 0.112755
-142.500000 0.140270
-141.500000 0.169409
-140.500000 0.111531
-139.500000 0.139897
-138.500000 0.056484
-137.500000 0.056732
-136.500000 0.056576
-135.500000 0.168439
-134.500000 0.112551
-133.500000 0.167859
-132.500000 0.169504
-131.500000 0.141535
-130.500000 0.226342
-129.500000 0.196206
-128.500000 0.084532
-127.500000 0.056503
-126.500000 0.197348
-125.500000 0.140019
-124.500000 0.113369
-123.500000 0.227610
-122.500000 0.056469
-121.500000 0.227121
-120.500000 0.028113
-119.500000 0.341060
-118.500000 0.225325
-117.500000 0.141957
-116.500000 0.199079
-115.500000 0.085456
-114.500000 0.141241
-113.500000 0.252521
-112.500000 0.199381
-111.500000 0.140976
-110.500000 0.169216
-109.500000 0.112941
-108.500000 0.169436
-107.500000 0.169719
-106.500000 0.028121
-105.500000 0.113906
-104.500000 0.114433
-103.500000 0.141644
-102.500000 0.112311
-101.500000 0.056485
-100.500000 0.171604
-99.500000 0.113103
-98.500000 0.311032
-97.500000 0.112883
-96.500000 0.112786
-95.500000 0.254626
-94.500000 0.197731
-93.500000 0.084590
-92.500000 0.112635
-91.500000 0.170099
-90.500000 0.140540
-89.500000 0.199230
-88.500000 0.113343
-87.500000 0.085042
-86.500000 0.141392
-85.500000 0.084238
-84.500000 0.226348
-83.500000 0.198588
-82.500000 0.142106
-81.500000 0.142037
-80.500000 0.141796
-79.500000 0.196954
-78.500000 0.141295
-77.500000 0.169694
-76.500000 0.113446
-75.500000 0.056990
-74.500000 0.113153
-73.500000 0.056822
-72.500000 0.113674
-71.500000 0.141371
-70.500000 0.142676
-69.500000 0.256394
-68.500000 0.113943
-67.500000 0.084496
-66.500000 0.169343
-65.500000 0.085013
-64.500000 0.170075
-63.500000 0.141563
-62.500000 0.112447
-61.500000 0.170262
-60.500000 0.112810
-59.500000 0.113792
-58.500000 0.169114
-57.500000 0.142211
-56.500000 0.311075
-55.500000 0.253453
-54.500000 0.171060
-53.500000 0.084173
-52.500000 0.198378
-51.500000 0.112044
-50.500000 0.196862
-49.500000 0.140891
-48.500000 0.141278
-47.500000 0.056636
-46.500000 0.141610
-45.500000 0.085325
-44.500000 0.142050
-43.500000 0.056708
-42.500000 0.227603
-41.500000 0.085612
-40.500000 0.113961
-39.500000 0.284976
-38.500000 0.169935
-37.500000 0.112655
-36.500000 0.056809
-35.500000 0.226284
-34.500000 0.141621
-33.500000 0.113585
-32.500000 0.057382
-31.500000 0.141647
-30.500000 0.197802
-29.500000 0.142036
-28.500000 0.226020
-27.500000 0.140523
-26.500000 0.113524
-25.500000 0.199181
-24.500000 0.253277
-23.500000 0.252591
-22.500000 0.226162
-21.500000 0.198313
-20.500000 0.253744
-19.500000 0.141524
-18.500000 0.168581
-17.500000 0.339497
-16.500000 0.257304
-15.500000 0.226837
-14.500000 0.141873
-13.500000 0.141895
-12.500000 0.056937
-11.500000 0.113511
-10.500000 0.197412
-9.500000 0.142486
-8.500000 0.198970
-7.500000 0.141929
-6.500000 0.311978
-5.500000 0.225108
-4.500000 0.200205
-3.500000 0.171128
-2.500000 0.255165
-1.500000 0.113393
-0.500000 0.282736
0.500000 1.000000
1.500000 0.313220
2.500000 0.228290
3.500000 0.199434
4.500000 0.084462
5.500000 0.225280
6.500000 0.084888
7.500000 0.255766
8.500000 0.085130
9.500000 0.198514
10.500000 0.056388
11.500000 0.169358
12.500000 0.369725
13.500000 0.254321
14.500000 0.141663
15.500000 0.168980
16.500000 0.169271
17.500000 0.254968
18.500000 0.224579
19.500000 0.168062
20.500000 0.028330
21.500000 0.141096
22.500000 0.169342
23.500000 0.056901
24.500000 0.113421
25.500000 0.169538
26.500000 0.310615
27.500000 0.084471
28.500000 0.225591
29.500000 0.169620
30.500000 0.140633
31.500000 0.085019
32.500000 0.282994
33.500000 0.197244
34.500000 0.313119
35.500000 0.255183
36.500000 0.056779
37.500000 0.197599
38.500000 0.196968
39.500000 0.171011
40.500000 0.198441
41.500000 0.084282
42.500000 0.339478
43.500000 0.056786
44.500000 0.196819
45.500000 0.197426
46.500000 0.366064
47.500000 0.228565
48.500000 0.142194
49.500000 0.283919
50.500000 0.057037
51.500000 0.085306
52.500000 0.226589
53.500000 0.112679
54.500000 0.112774
55.500000 0.169547
56.500000 0.197697
57.500000 0.114140
58.500000 0.252556
59.500000 0.112580
60.500000 0.195987
61.500000 0.113761
62.500000 0.223368
63.500000 0.168973
64.500000 0.197729
65.500000 0.227685
66.500000 0.199354
67.500000 0.141815
68.500000 0.169429
69.500000 0.112547
70.500000 0.226660
71.500000 0.084382
72.500000 0.281417
73.500000 0.313532
74.500000 0.227916
75.500000 0.197692
76.500000 0.170637
77.500000 0.140583
78.500000 0.254526
79.500000 0.168735
80.500000 0.168844
81.500000 0.056264
82.500000 0.280998
83.500000 0.199056
84.500000 0.168784
85.500000 0.169566
86.500000 0.084896
87.500000 0.140778
88.500000 0.111702
89.500000 0.112138
90.500000 0.027913
91.500000 0.113590
92.500000 0.168337
93.500000 0.168687
94.500000 0.084681
95.500000 0.341410
96.500000 0.226186
97.500000 0.139660
98.500000 0.225454
99.500000 0.112260
100.500000 0.198105
101.500000 0.198317
102.500000 0.169777
103.500000 0.253826
104.500000 0.139895
105.500000 0.225037
106.500000 0.083893
107.500000 0.169323
108.500000 0.112965
109.500000 0.256304
110.500000 0.168962
111.500000 0.168826
112.500000 0.194360
113.500000 0.310171
114.500000 0.253693
115.500000 0.252767
116.500000 0.112554
117.500000 0.196202
118.500000 0.084549
119.500000 0.084510
120.500000 0.112612
121.500000 0.139396
122.500000 0.282014
123.500000 0.168940
124.500000 0.111876
125.500000 0.252312
126.500000 0.139497
127.500000 0.225147
128.500000 0.195406
129.500000 0.196690
130.500000 0.139560
131.500000 0.308362
132.500000 0.223828
133.500000 0.223562
134.500000 0.222824
135.500000 0.221965
136.500000 0.112593
137.500000 0.139674
138.500000 0.196388
139.500000 0.111923
140.500000 0.168632
141.500000 0.309090
142.500000 0.084169
143.500000 0.166255
144.500000 0.309729
145.500000 0.222494
146.500000 0.055988
147.500000 0.282792
148.500000 0.112114
149.500000 0.251471
150.500000 0.282417
151.500000 0.055612
152.500000 0.307406
153.500000 0.196636
154.500000 0.279685
155.500000 0.278855
156.500000 0.139331
157.500000 0.112153
158.500000 0.140208
159.500000 0.251925
160.500000 0.112596
161.500000 0.224907
162.500000 0.168603
163.500000 0.224490
164.500000 0.112527
165.500000 0.279742
166.500000 0.251190
167.500000 0.224595
168.500000 0.222980
169.500000 0.112999
170.500000 0.111999
171.500000 0.194806
172.500000 0.195347
173.500000 0.111907
174.500000 0.167132
175.500000 0.195382
176.500000 0.110743
177.500000 0.138988
178.500000 0.222234
179.500000 0.139342
180.500000 0.166134
181.500000 0.111624
182.500000 0.167987
183.500000 0.138809
184.500000 0.197251
185.500000 0.336099
186.500000 0.394954
187.500000 0.168120
188.500000 0.336819
189.500000 0.083669
190.500000 0.196056
191.500000 0.223418
192.500000 0.112197
193.500000 0.112158
194.500000 0.223035
195.500000 0.196610
196.500000 0.194744
197.500000 0.223861
198.500000 0.195036
199.500000 0.223060
200.500000 0.167835
201.500000 0.333556
202.500000 0.167381
203.500000 0.192962
204.500000 0.252644
205.500000 0.278178
206.500000 0.361986
207.500000 0.139579
208.500000 0.360526
209.500000 0.278051
210.500000 0.027828
211.500000 0.277415
212.500000 0.195709
213.500000 0.249955
214.500000 0.194966
215.500000 0.082954
216.500000 0.195333
217.500000 0.194750
218.500000 0.167035
219.500000 0.358750
220.500000 0.195273
221.500000 0.167653
222.500000 0.167273
223.500000 0.223431
224.500000 0.111284
225.500000 0.251059
226.500000 0.166678
227.500000 0.332232
228.500000 0.055283
229.500000 0.221774
230.500000 0.193528
231.500000 0.277069
232.500000 0.248126
233.500000 0.248719
234.500000 0.220958
235.500000 0.110453
236.500000 0.165456
237.500000 0.220656
238.500000 0.193686
239.500000 0.110831
240.500000 0.221203
241.500000 0.165853
242.500000 0.193095
243.500000 0.223620
244.500000 0.138152
245.500000 0.138619
246.500000 0.193059
247.500000 0.165281
248.500000 0.165825
249.500000 0.138783
250.500000 0.334282
251.500000 0.249746
252.500000 0.165981
253.500000 0.223017
254.500000 0.248265
255.500000 0.193091
256.500000 0.139560
257.500000 0.055290
258.500000 0.165400
259.500000 0.194920
260.500000 0.331835
261.500000 0.082698
262.500000 0.110460
263.500000 0.249997
264.500000 0.193773
265.500000 0.276855
266.500000 0.138200
267.500000 0.138157
268.500000 0.165739
269.500000 0.164973
270.500000 0.164015
271.500000 0.164956
272.500000 0.247764
273.500000 0.109854
274.500000 0.082837
275.500000 0.165017
276.500000 0.330410
277.500000 0.027556
278.500000 0.137624
279.500000 0.164973
280.500000 0.194329
281.500000 0.165408
282.500000 0.165750
283.500000 0.192876
284.500000 0.191415
285.500000 0.193437
286.500000 0.221684
287.500000 0.165454
288.500000 0.054965
289.500000 0.247335
290.500000 0.304388
291.500000 0.303770
292.500000 0.273676
293.500000 0.165048
294.500000 0.165755
295.500000 0.191193
296.500000 0.274512
297.500000 0.331755
298.500000 0.082552
299.500000 0.246420
