# Left column = Time after Trigger in seconds & Right column = # Counts / Exposure = Flux per cm² s
-299.500000 0.227009
-298.500000 0.170886
-297.500000 0.169811
-296.500000 0.255852
-295.500000 0.454014
-294.500000 0.197666
-293.500000 0.452996
-292.500000 0.281022
-291.500000 0.226324
-290.500000 0.197028
-289.500000 0.312350
-288.500000 0.196718
-287.500000 0.199378
-286.500000 0.141702
-285.500000 0.310453
-284.500000 0.197656
-283.500000 0.338587
-282.500000 0.368582
-281.500000 0.312083
-280.500000 0.226837
-279.500000 0.310940
-278.500000 0.228306
-277.500000 0.170552
-276.500000 0.227352
-275.500000 0.226814
-274.500000 0.284283
-273.500000 0.197868
-272.500000 0.170180
-271.500000 0.283605
-270.500000 0.143002
-269.500000 0.283461
-268.500000 0.171635
-267.500000 0.197655
-266.500000 0.170615
-265.500000 0.168759
-264.500000 0.198328
-263.500000 0.199572
-262.500000 0.366335
-261.500000 0.254626
-260.500000 0.283621
-259.500000 0.225749
-258.500000 0.199052
-257.500000 0.169840
-256.500000 0.228318
-255.500000 0.084746
-254.500000 0.227754
-253.500000 0.310740
-252.500000 0.310295
-251.500000 0.170978
-250.500000 0.253545
-249.500000 0.171082
-248.500000 0.226079
-247.500000 0.226174
-246.500000 0.257943
-245.500000 0.394969
-244.500000 0.341167
-243.500000 0.199523
-242.500000 0.141188
-241.500000 0.226881
-240.500000 0.170812
-239.500000 0.169437
-238.500000 0.227279
-237.500000 0.169674
-236.500000 0.171624
-235.500000 0.085077
-234.500000 0.226339
-233.500000 0.339633
-232.500000 0.310970
-231.500000 0.170607
-230.500000 0.311798
-229.500000 0.198192
-228.500000 0.171414
-227.500000 0.113658
-226.500000 0.312356
-225.500000 0.170229
-224.500000 0.394850
-223.500000 0.142201
-222.500000 0.113585
-221.500000 0.142190
-220.500000 0.255503
-219.500000 0.227729
-218.500000 0.084572
-217.500000 0.197401
-216.500000 0.228293
-215.500000 0.227645
-214.500000 0.227181
-213.500000 0.169676
-212.500000 0.315095
-211.500000 0.227547
-210.500000 0.170110
-209.500000 0.113498
-208.500000 0.312052
-207.500000 0.113635
-206.500000 0.227275
-205.500000 0.313867
-204.500000 0.369964
-203.500000 0.056838
-202.500000 0.199064
-201.500000 0.169083
-200.500000 0.228055
-199.500000 0.141936
-198.500000 0.141425
-197.500000 0.170076
-196.500000 0.253532
-195.500000 0.085687
-194.500000 0.283844
-193.500000 0.227854
-192.500000 0.171608
-191.500000 0.141481
-190.500000 0.171376
-189.500000 0.254745
-188.500000 0.142733
-187.500000 0.284028
-186.500000 0.142057
-185.500000 0.340426
-184.500000 0.368825
-183.500000 0.226818
-182.500000 0.226616
-181.500000 0.169385
-180.500000 0.113863
-179.500000 0.366768
-178.500000 0.226069
-177.500000 0.226380
-176.500000 0.227144
-175.500000 0.113771
-174.500000 0.228080
-173.500000 0.253974
-172.500000 0.256648
-171.500000 0.226175
-170.500000 0.227969
-169.500000 0.255756
-168.500000 0.142721
-167.500000 0.256605
-166.500000 0.310301
-165.500000 0.254957
-164.500000 0.170338
-163.500000 0.169790
-162.500000 0.256343
-161.500000 0.254568
-160.500000 0.226873
-159.500000 0.142171
-158.500000 0.256198
-157.500000 0.141533
-156.500000 0.311659
-155.500000 0.113667
-154.500000 0.142150
-153.500000 0.085351
-152.500000 0.339920
-151.500000 0.398349
-150.500000 0.169782
-149.500000 0.256427
-148.500000 0.254099
-147.500000 0.170346
-146.500000 0.255113
-145.500000 0.284721
-144.500000 0.226923
-143.500000 0.254476
-142.500000 0.113387
-141.500000 0.141989
-140.500000 0.256199
-139.500000 0.228353
-138.500000 0.171289
-137.500000 0.452638
-136.500000 0.143070
-135.500000 0.141980
-134.500000 0.170963
-133.500000 0.170283
-132.500000 0.142022
-131.500000 0.113450
-130.500000 0.255459
-129.500000 0.226786
-128.500000 0.113656
-127.500000 0.254166
-126.500000 0.228260
-125.500000 0.282924
-124.500000 0.254354
-123.500000 0.170650
-122.500000 0.368164
-121.500000 0.227577
-120.500000 0.424393
-119.500000 0.198884
-118.500000 0.085489
-117.500000 0.255164
-116.500000 0.338666
-115.500000 0.426809
-114.500000 0.339766
-113.500000 0.255778
-112.500000 0.198955
-111.500000 0.284112
-110.500000 0.084936
-109.500000 0.200023
-108.500000 0.113411
-107.500000 0.226125
-106.500000 0.257261
-105.500000 0.170124
-104.500000 0.227951
-103.500000 0.254756
-102.500000 0.338653
-101.500000 0.198714
-100.500000 0.257060
-99.500000 0.113102
-98.500000 0.197987
-97.500000 0.170104
-96.500000 0.113455
-95.500000 0.284913
-94.500000 0.198389
-93.500000 0.226956
-92.500000 0.284832
-91.500000 0.198390
-90.500000 0.256133
-89.500000 0.227648
-88.500000 0.256197
-87.500000 0.282263
-86.500000 0.228326
-85.500000 0.368257
-84.500000 0.255414
-83.500000 0.283313
-82.500000 0.256138
-81.500000 0.399909
-80.500000 0.256753
-79.500000 0.286340
-78.500000 0.340705
-77.500000 0.254868
-76.500000 0.256887
-75.500000 0.170808
-74.500000 0.198814
-73.500000 0.228294
-72.500000 0.113419
-71.500000 0.254783
-70.500000 0.255458
-69.500000 0.400027
-68.500000 0.200156
-67.500000 0.171019
-66.500000 0.171491
-65.500000 0.339056
-64.500000 0.197516
-63.500000 0.254584
-62.500000 0.199033
-61.500000 0.314411
-60.500000 0.198899
-59.500000 0.283934
-58.500000 0.340864
-57.500000 0.284324
-56.500000 0.142844
-55.500000 0.170204
-54.500000 0.312221
-53.500000 0.283903
-52.500000 0.228046
-51.500000 0.171041
-50.500000 0.170244
-49.500000 0.170721
-48.500000 0.228547
-47.500000 0.141970
-46.500000 0.256933
-45.500000 0.197442
-44.500000 0.227959
-43.500000 0.255850
-42.500000 0.255737
-41.500000 0.283158
-40.500000 0.199581
-39.500000 0.000000
-38.500000 0.255177
-37.500000 0.370032
-36.500000 0.197549
-35.500000 0.142290
-34.500000 0.199003
-33.500000 0.313190
-32.500000 0.199395
-31.500000 0.368176
-30.500000 0.198574
-29.500000 0.056928
-28.500000 0.170392
-27.500000 0.085437
-26.500000 0.199368
-25.500000 0.170055
-24.500000 0.170285
-23.500000 0.028333
-22.500000 0.198336
-21.500000 0.312800
-20.500000 0.000000
-19.500000 0.371995
-18.500000 0.256004
-17.500000 0.199296
-16.500000 0.085610
-15.500000 0.113292
-14.500000 0.141525
-13.500000 0.142422
-12.500000 0.170191
-11.500000 0.114372
-10.500000 0.369733
-9.500000 0.343695
-8.500000 0.200299
-7.500000 0.228485
-6.500000 0.141555
-5.500000 0.227915
-4.500000 0.255619
-3.500000 0.170494
-2.500000 0.284472
-1.500000 0.142348
-0.500000 0.258285
0.500000 0.228146
1.500000 0.256073
2.500000 0.344387
3.500000 0.256604
4.500000 0.284747
5.500000 0.314153
6.500000 0.313144
7.500000 0.458369
8.500000 0.170530
9.500000 0.199598
10.500000 0.143441
11.500000 0.171565
12.500000 0.142166
13.500000 0.142516
14.500000 0.114674
15.500000 0.171242
16.500000 0.283966
17.500000 1.000000
18.500000 0.486359
19.500000 0.315897
20.500000 0.370069
21.500000 0.285571
22.500000 0.399851
23.500000 0.255698
24.500000 0.114505
25.500000 0.113712
26.500000 0.141967
27.500000 0.085422
28.500000 0.369552
29.500000 0.228812
30.500000 0.170860
31.500000 0.085724
32.500000 0.198562
33.500000 0.227747
34.500000 0.113867
35.500000 0.143283
36.500000 0.142471
37.500000 0.169942
38.500000 0.113643
39.500000 0.340764
40.500000 0.114396
41.500000 0.169519
42.500000 0.199017
43.500000 0.284457
44.500000 0.171490
45.500000 0.170779
46.500000 0.170863
47.500000 0.228712
48.500000 0.085140
49.500000 0.171612
50.500000 0.142036
51.500000 0.228412
52.500000 0.200516
53.500000 0.142133
54.500000 0.085461
55.500000 0.170973
56.500000 0.142527
57.500000 0.286174
58.500000 0.144270
59.500000 0.113650
60.500000 0.201145
61.500000 0.114280
62.500000 0.284346
63.500000 0.286537
64.500000 0.028442
65.500000 0.200246
66.500000 0.227143
67.500000 0.311309
68.500000 0.227691
69.500000 0.114071
70.500000 0.142043
71.500000 0.142203
72.500000 0.057149
73.500000 0.142404
74.500000 0.257221
75.500000 0.226681
76.500000 0.085755
77.500000 0.141798
78.500000 0.170860
79.500000 0.141675
80.500000 0.141895
81.500000 0.228169
82.500000 0.086012
83.500000 0.171027
84.500000 0.227767
85.500000 0.198284
86.500000 0.256436
87.500000 0.170024
88.500000 0.198709
89.500000 0.342442
90.500000 0.227109
91.500000 0.171584
92.500000 0.113434
93.500000 0.171238
94.500000 0.028360
95.500000 0.170605
96.500000 0.085663
97.500000 0.170741
98.500000 0.113386
99.500000 0.113784
100.500000 0.227823
101.500000 0.142438
102.500000 0.255388
103.500000 0.285376
104.500000 0.227498
105.500000 0.028556
106.500000 0.199018
107.500000 0.085356
108.500000 0.085594
109.500000 0.056914
110.500000 0.085959
111.500000 0.114883
112.500000 0.113851
113.500000 0.057319
114.500000 0.142244
115.500000 0.142203
116.500000 0.142172
117.500000 0.143268
118.500000 0.201275
119.500000 0.227851
120.500000 0.170882
121.500000 0.171258
122.500000 0.341582
123.500000 0.028626
124.500000 0.143187
125.500000 0.170866
126.500000 0.199707
127.500000 0.342479
128.500000 0.169763
129.500000 0.143693
130.500000 0.171763
131.500000 0.141501
132.500000 0.227308
133.500000 0.199445
134.500000 0.283099
135.500000 0.142507
136.500000 0.085809
137.500000 0.085512
138.500000 0.142453
139.500000 0.143061
140.500000 0.056899
141.500000 0.256973
142.500000 0.169888
143.500000 0.227919
144.500000 0.142873
145.500000 0.141869
146.500000 0.114600
147.500000 0.171100
148.500000 0.142241
149.500000 0.114014
150.500000 0.113747
151.500000 0.085436
152.500000 0.114601
153.500000 0.085170
154.500000 0.227943
155.500000 0.113930
156.500000 0.142131
157.500000 0.114138
158.500000 0.141869
159.500000 0.113844
160.500000 0.141912
161.500000 0.028441
162.500000 0.056890
163.500000 0.142833
164.500000 0.000000
165.500000 0.171980
166.500000 0.171003
167.500000 0.114639
168.500000 0.256360
169.500000 0.142732
170.500000 0.170944
171.500000 0.312183
172.500000 0.142214
173.500000 0.256322
174.500000 0.199771
175.500000 0.198771
176.500000 0.142118
177.500000 0.227935
178.500000 0.314302
179.500000 0.113765
180.500000 0.113743
181.500000 0.028369
182.500000 0.114444
183.500000 0.171347
184.500000 0.113508
185.500000 0.198838
186.500000 0.056865
187.500000 0.085950
188.500000 0.199406
189.500000 0.056922
190.500000 0.114020
191.500000 0.229006
192.500000 0.056628
193.500000 0.170958
194.500000 0.228166
195.500000 0.113455
196.500000 0.258187
197.500000 0.198892
198.500000 0.000000
199.500000 0.113660
200.500000 0.199168
201.500000 0.028552
202.500000 0.170509
203.500000 0.170058
204.500000 0.171904
205.500000 0.057091
206.500000 0.171141
207.500000 0.113898
208.500000 0.142156
209.500000 0.313980
210.500000 0.171979
211.500000 0.312670
212.500000 0.085898
213.500000 0.085866
214.500000 0.228347
215.500000 0.257668
216.500000 0.200155
217.500000 0.170821
218.500000 0.143094
219.500000 0.084771
220.500000 0.114363
221.500000 0.057214
222.500000 0.197759
223.500000 0.114910
224.500000 0.228412
225.500000 0.199682
226.500000 0.143034
227.500000 0.228972
228.500000 0.199473
229.500000 0.141984
230.500000 0.057286
231.500000 0.142175
232.500000 0.085547
233.500000 0.199683
234.500000 0.143179
235.500000 0.171873
236.500000 0.085816
237.500000 0.057368
238.500000 0.085568
239.500000 0.114809
240.500000 0.198995
241.500000 0.142515
242.500000 0.142356
243.500000 0.057194
244.500000 0.143300
245.500000 0.257064
246.500000 0.142393
247.500000 0.142282
248.500000 0.142078
249.500000 0.143163
250.500000 0.085284
251.500000 0.142413
252.500000 0.028695
253.500000 0.084917
254.500000 0.171820
255.500000 0.171469
256.500000 0.028308
257.500000 0.113119
258.500000 0.143690
259.500000 0.141956
260.500000 0.056987
261.500000 0.057106
262.500000 0.057177
263.500000 0.142052
264.500000 0.171598
265.500000 0.229127
266.500000 0.028450
267.500000 0.227408
268.500000 0.171359
269.500000 0.142251
270.500000 0.171949
271.500000 0.171264
272.500000 0.114406
273.500000 0.142747
274.500000 0.171999
275.500000 0.283562
276.500000 0.227073
277.500000 0.085976
278.500000 0.086323
279.500000 0.143500
280.500000 0.142516
281.500000 0.114889
282.500000 0.199431
283.500000 0.114303
284.500000 0.143455
285.500000 0.170487
286.500000 0.172175
287.500000 0.143138
288.500000 0.143158
289.500000 0.085707
290.500000 0.142280
291.500000 0.114047
292.500000 0.028495
293.500000 0.171716
294.500000 0.085992
295.500000 0.057061
296.500000 0.113900
297.500000 0.114775
298.500000 0.113845
299.500000 0.142057
