# Left column = Time after Trigger in seconds & Right column = # Counts / Exposure = Flux per cm² s
-299.500000 0.357165
-298.500000 0.207303
-297.500000 0.206921
-296.500000 0.356036
-295.500000 0.355271
-294.500000 0.386636
-293.500000 0.417362
-292.500000 0.387868
-291.500000 0.298260
-290.500000 0.355463
-289.500000 0.149557
-288.500000 0.238726
-287.500000 0.299667
-286.500000 0.624534
-285.500000 0.475690
-284.500000 0.178649
-283.500000 0.384396
-282.500000 0.416565
-281.500000 0.177127
-280.500000 0.296831
-279.500000 0.177685
-278.500000 0.415465
-277.500000 0.238179
-276.500000 0.357686
-275.500000 0.445323
-274.500000 0.474335
-273.500000 0.298444
-272.500000 0.088739
-271.500000 0.562716
-270.500000 0.326994
-269.500000 0.326083
-268.500000 0.503634
-267.500000 0.355810
-266.500000 0.238046
-265.500000 0.267973
-264.500000 0.412480
-263.500000 0.386812
-262.500000 0.474965
-261.500000 0.324221
-260.500000 0.206872
-259.500000 0.177725
-258.500000 0.357181
-257.500000 0.386964
-256.500000 0.296001
-255.500000 0.503632
-254.500000 0.475686
-253.500000 0.237321
-252.500000 0.383623
-251.500000 0.294828
-250.500000 0.326479
-249.500000 0.384687
-248.500000 0.238437
-247.500000 0.505524
-246.500000 0.176958
-245.500000 0.327505
-244.500000 0.357118
-243.500000 0.356331
-242.500000 0.295582
-241.500000 0.267033
-240.500000 0.179515
-239.500000 0.384030
-238.500000 0.266782
-237.500000 0.418255
-236.500000 0.412358
-235.500000 0.207166
-234.500000 0.208886
-233.500000 0.268113
-232.500000 0.323164
-231.500000 0.324528
-230.500000 0.236760
-229.500000 0.266647
-228.500000 0.179877
-227.500000 0.236087
-226.500000 0.237643
-225.500000 0.473570
-224.500000 0.206200
-223.500000 0.326251
-222.500000 0.266076
-221.500000 0.294544
-220.500000 0.207084
-219.500000 0.296132
-218.500000 0.236369
-217.500000 0.268711
-216.500000 0.206806
-215.500000 0.147527
-214.500000 0.384734
-213.500000 0.059375
-212.500000 0.148020
-211.500000 0.208209
-210.500000 0.206700
-209.500000 0.265661
-208.500000 0.237969
-207.500000 0.267993
-206.500000 0.355397
-205.500000 0.177131
-204.500000 0.236171
-203.500000 0.355958
-202.500000 0.236294
-201.500000 0.415395
-200.500000 0.266756
-199.500000 0.148106
-198.500000 0.295587
-197.500000 0.325990
-196.500000 0.237403
-195.500000 0.413306
-194.500000 0.328535
-193.500000 0.263392
-192.500000 0.207528
-191.500000 0.207205
-190.500000 0.415661
-189.500000 0.353238
-188.500000 0.264615
-187.500000 0.356433
-186.500000 0.296678
-185.500000 0.294836
-184.500000 0.206647
-183.500000 0.266876
-182.500000 0.236475
-181.500000 0.355999
-180.500000 0.237365
-179.500000 0.324479
-178.500000 0.323484
-177.500000 0.176228
-176.500000 0.266203
-175.500000 0.237380
-174.500000 0.234947
-173.500000 0.147931
-172.500000 0.264488
-171.500000 0.385908
-170.500000 0.294753
-169.500000 0.265507
-168.500000 0.234871
-167.500000 0.146907
-166.500000 0.384738
-165.500000 0.294497
-164.500000 0.415235
-163.500000 0.295098
-162.500000 0.206404
-161.500000 0.207366
-160.500000 0.147663
-159.500000 0.148363
-158.500000 0.297643
-157.500000 0.267420
-156.500000 0.265776
-155.500000 0.263839
-154.500000 0.473425
-153.500000 0.296051
-152.500000 0.266939
-151.500000 0.294106
-150.500000 0.235306
-149.500000 0.294416
-148.500000 0.413987
-147.500000 0.117883
-146.500000 0.355957
-145.500000 0.235593
-144.500000 0.324590
-143.500000 0.294132
-142.500000 0.236713
-141.500000 0.088868
-140.500000 0.323513
-139.500000 0.234405
-138.500000 0.235080
-137.500000 0.264214
-136.500000 0.235572
-135.500000 0.266235
-134.500000 0.324477
-133.500000 0.326954
-132.500000 0.324365
-131.500000 0.295037
-130.500000 0.177128
-129.500000 0.206761
-128.500000 0.264930
-127.500000 0.235722
-126.500000 0.205944
-125.500000 0.322932
-124.500000 0.353644
-123.500000 0.266250
-122.500000 0.205986
-121.500000 0.264536
-120.500000 0.088284
-119.500000 0.118075
-118.500000 0.264058
-117.500000 0.029378
-116.500000 0.177401
-115.500000 0.294876
-114.500000 0.263881
-113.500000 0.295080
-112.500000 0.323945
-111.500000 0.206672
-110.500000 0.295721
-109.500000 0.410484
-108.500000 0.412939
-107.500000 0.265230
-106.500000 0.235334
-105.500000 0.146303
-104.500000 0.264749
-103.500000 0.263930
-102.500000 0.266061
-101.500000 0.235931
-100.500000 0.294379
-99.500000 0.355282
-98.500000 0.355941
-97.500000 0.265677
-96.500000 0.204972
-95.500000 0.354299
-94.500000 0.267186
-93.500000 0.263661
-92.500000 0.296563
-91.500000 0.176756
-90.500000 0.294579
-89.500000 0.175740
-88.500000 0.238832
-87.500000 0.296210
-86.500000 0.234371
-85.500000 0.410158
-84.500000 0.322501
-83.500000 0.382708
-82.500000 0.321388
-81.500000 0.235656
-80.500000 0.265545
-79.500000 0.117724
-78.500000 0.265229
-77.500000 0.265564
-76.500000 0.322494
-75.500000 0.175919
-74.500000 0.206500
-73.500000 0.087833
-72.500000 0.266604
-71.500000 0.324500
-70.500000 0.351644
-69.500000 0.382855
-68.500000 0.263941
-67.500000 0.265427
-66.500000 0.146584
-65.500000 0.176808
-64.500000 0.146944
-63.500000 0.352769
-62.500000 0.146585
-61.500000 0.323341
-60.500000 0.176229
-59.500000 0.380857
-58.500000 0.088845
-57.500000 0.265095
-56.500000 0.147805
-55.500000 0.175925
-54.500000 0.383336
-53.500000 0.442244
-52.500000 0.413365
-51.500000 0.292619
-50.500000 0.383353
-49.500000 0.203892
-48.500000 0.264900
-47.500000 0.412693
-46.500000 0.264748
-45.500000 0.206473
-44.500000 0.264188
-43.500000 0.354263
-42.500000 0.176697
-41.500000 0.265765
-40.500000 0.176639
-39.500000 0.353537
-38.500000 0.560690
-37.500000 0.176608
-36.500000 0.353590
-35.500000 0.205049
-34.500000 0.235205
-33.500000 0.295822
-32.500000 0.146695
-31.500000 0.264572
-30.500000 0.322528
-29.500000 0.116925
-28.500000 0.117659
-27.500000 0.117313
-26.500000 0.353997
-25.500000 0.264556
-24.500000 0.205742
-23.500000 0.264515
-22.500000 0.235571
-21.500000 0.206233
-20.500000 0.264966
-19.500000 0.175934
-18.500000 0.438989
-17.500000 0.292709
-16.500000 0.176372
-15.500000 0.206905
-14.500000 0.118177
-13.500000 0.266732
-12.500000 0.355755
-11.500000 0.116667
-10.500000 0.204399
-9.500000 0.321240
-8.500000 0.177499
-7.500000 0.206239
-6.500000 0.324437
-5.500000 0.146810
-4.500000 0.322897
-3.500000 0.204827
-2.500000 0.295025
-1.500000 0.499732
-0.500000 0.295001
0.500000 0.233710
1.500000 0.411109
2.500000 0.264357
3.500000 0.263802
4.500000 0.677857
5.500000 1.000000
6.500000 0.645127
7.500000 0.380867
8.500000 0.351845
9.500000 0.292546
10.500000 0.412244
11.500000 0.353845
12.500000 0.236054
13.500000 0.383203
14.500000 0.381877
15.500000 0.234843
16.500000 0.292764
17.500000 0.293360
18.500000 0.528729
19.500000 0.528021
20.500000 0.349794
21.500000 0.233863
22.500000 0.291898
23.500000 0.499641
24.500000 0.294856
25.500000 0.321029
26.500000 0.294344
27.500000 0.236964
28.500000 0.264072
29.500000 0.205224
30.500000 0.205632
31.500000 0.205955
32.500000 0.234233
33.500000 0.204969
34.500000 0.293121
35.500000 0.234532
36.500000 0.205666
37.500000 0.352385
38.500000 0.176901
39.500000 0.322719
40.500000 0.176142
41.500000 0.350868
42.500000 0.292438
43.500000 0.232937
44.500000 0.379791
45.500000 0.442503
46.500000 0.207594
47.500000 0.380412
48.500000 0.146575
49.500000 0.320112
50.500000 0.321654
51.500000 0.264253
52.500000 0.087873
53.500000 0.205171
54.500000 0.348971
55.500000 0.350982
56.500000 0.175433
57.500000 0.205521
58.500000 0.234980
59.500000 0.293103
60.500000 0.378600
61.500000 0.293272
62.500000 0.264739
63.500000 0.293931
64.500000 0.233624
65.500000 0.205137
66.500000 0.204909
67.500000 0.205242
68.500000 0.294334
69.500000 0.176727
70.500000 0.322180
71.500000 0.204832
72.500000 0.175475
73.500000 0.351078
74.500000 0.293534
75.500000 0.292721
76.500000 0.146492
77.500000 0.205032
78.500000 0.204581
79.500000 0.263319
80.500000 0.438666
81.500000 0.234024
82.500000 0.204655
83.500000 0.234925
84.500000 0.146591
85.500000 0.117224
86.500000 0.176262
87.500000 0.234577
88.500000 0.146463
89.500000 0.322135
90.500000 0.232767
91.500000 0.147469
92.500000 0.232994
93.500000 0.262246
94.500000 0.176078
95.500000 0.294050
96.500000 0.413428
97.500000 0.205541
98.500000 0.233941
99.500000 0.320971
100.500000 0.234113
101.500000 0.175236
102.500000 0.117697
103.500000 0.264855
104.500000 0.263337
105.500000 0.351710
106.500000 0.205187
107.500000 0.350716
108.500000 0.146850
109.500000 0.205327
110.500000 0.439987
111.500000 0.203682
112.500000 0.261740
113.500000 0.234513
114.500000 0.146463
115.500000 0.292874
116.500000 0.410951
117.500000 0.145659
118.500000 0.087455
119.500000 0.117035
120.500000 0.235475
121.500000 0.176380
122.500000 0.263797
123.500000 0.203108
124.500000 0.381230
125.500000 0.146907
126.500000 0.233216
127.500000 0.233845
128.500000 0.204430
129.500000 0.116530
130.500000 0.264966
131.500000 0.116556
132.500000 0.176129
133.500000 0.233850
134.500000 0.146367
135.500000 0.322617
136.500000 0.235240
137.500000 0.264829
138.500000 0.263960
139.500000 0.088283
140.500000 0.146389
141.500000 0.351078
142.500000 0.176404
143.500000 0.292388
144.500000 0.117022
145.500000 0.325389
146.500000 0.264328
147.500000 0.321734
148.500000 0.234752
149.500000 0.147393
150.500000 0.117238
151.500000 0.204815
152.500000 0.322190
153.500000 0.117202
154.500000 0.352643
155.500000 0.175838
156.500000 0.116869
157.500000 0.292187
158.500000 0.232758
159.500000 0.292272
160.500000 0.204225
161.500000 0.206352
162.500000 0.145790
163.500000 0.175695
164.500000 0.204329
165.500000 0.322248
166.500000 0.087851
167.500000 0.117529
168.500000 0.088705
169.500000 0.234798
170.500000 0.205625
171.500000 0.234045
172.500000 0.293035
173.500000 0.174945
174.500000 0.087453
175.500000 0.205445
176.500000 0.322490
177.500000 0.116580
178.500000 0.234325
179.500000 0.323009
180.500000 0.146553
181.500000 0.204477
182.500000 0.145989
183.500000 0.349836
184.500000 0.087069
185.500000 0.205244
186.500000 0.204788
187.500000 0.322787
188.500000 0.087486
189.500000 0.292820
190.500000 0.146853
191.500000 0.290814
192.500000 0.292219
193.500000 0.204509
194.500000 0.087602
195.500000 0.233865
196.500000 0.234483
197.500000 0.147031
198.500000 0.205941
199.500000 0.204885
200.500000 0.176191
201.500000 0.176056
202.500000 0.117321
203.500000 0.116678
204.500000 0.235456
205.500000 0.175692
206.500000 0.233615
207.500000 0.232902
208.500000 0.174754
209.500000 0.174890
210.500000 0.323346
211.500000 0.234450
212.500000 0.116867
213.500000 0.233667
214.500000 0.203843
215.500000 0.116773
216.500000 0.116561
217.500000 0.204587
218.500000 0.087832
219.500000 0.232308
220.500000 0.175151
221.500000 0.146085
222.500000 0.116845
223.500000 0.087630
224.500000 0.262583
225.500000 0.146584
226.500000 0.233693
227.500000 0.205077
228.500000 0.175904
229.500000 0.058296
230.500000 0.321306
231.500000 0.116958
232.500000 0.087758
233.500000 0.203773
234.500000 0.146275
235.500000 0.235940
236.500000 0.204677
237.500000 0.234272
238.500000 0.175429
239.500000 0.145514
240.500000 0.175605
241.500000 0.116505
242.500000 0.058490
243.500000 0.175504
244.500000 0.292398
245.500000 0.087224
246.500000 0.146238
247.500000 0.145758
248.500000 0.233459
249.500000 0.236202
250.500000 0.175132
251.500000 0.058542
252.500000 0.233738
253.500000 0.176025
254.500000 0.087890
255.500000 0.116872
256.500000 0.175371
257.500000 0.116372
258.500000 0.205003
259.500000 0.146056
260.500000 0.176099
261.500000 0.116918
262.500000 0.263266
263.500000 0.029225
264.500000 0.147163
265.500000 0.146525
266.500000 0.264664
267.500000 0.117188
268.500000 0.116866
269.500000 0.262045
270.500000 0.204101
271.500000 0.175015
272.500000 0.087286
273.500000 0.146973
274.500000 0.292306
275.500000 0.145686
276.500000 0.204821
277.500000 0.116728
278.500000 0.264433
279.500000 0.146219
280.500000 0.176635
281.500000 0.262679
282.500000 0.235447
283.500000 0.147761
284.500000 0.145879
285.500000 0.058259
286.500000 0.205402
287.500000 0.204436
288.500000 0.205314
289.500000 0.058541
290.500000 0.117729
291.500000 0.058315
292.500000 0.174655
293.500000 0.322042
294.500000 0.087932
295.500000 0.145862
296.500000 0.116651
297.500000 0.146372
298.500000 0.058381
299.500000 0.116772
