# Left column = Time after Trigger in seconds & Right column = # Counts / Exposure = Flux per cm² s
-299.500000 0.241648
-298.500000 0.209863
-297.500000 0.241702
-296.500000 0.270121
-295.500000 0.149929
-294.500000 0.240352
-293.500000 0.301039
-292.500000 0.119810
-291.500000 0.271390
-290.500000 0.210502
-289.500000 0.150877
-288.500000 0.238704
-287.500000 0.242632
-286.500000 0.239567
-285.500000 0.179416
-284.500000 0.119590
-283.500000 0.271241
-282.500000 0.271276
-281.500000 0.268338
-280.500000 0.330124
-279.500000 0.180597
-278.500000 0.330954
-277.500000 0.269954
-276.500000 0.212418
-275.500000 0.209080
-274.500000 0.240467
-273.500000 0.270701
-272.500000 0.210575
-271.500000 0.150860
-270.500000 0.239089
-269.500000 0.240677
-268.500000 0.150111
-267.500000 0.149967
-266.500000 0.393710
-265.500000 0.148890
-264.500000 0.150469
-263.500000 0.300831
-262.500000 0.299292
-261.500000 0.180138
-260.500000 0.331768
-259.500000 0.180774
-258.500000 0.179761
-257.500000 0.181962
-256.500000 0.239015
-255.500000 0.299987
-254.500000 0.241139
-253.500000 0.210414
-252.500000 0.119635
-251.500000 0.150090
-250.500000 0.329092
-249.500000 0.239603
-248.500000 0.149048
-247.500000 0.210087
-246.500000 0.392152
-245.500000 0.358411
-244.500000 0.388556
-243.500000 0.119496
-242.500000 0.361012
-241.500000 0.149861
-240.500000 0.268937
-239.500000 0.208120
-238.500000 0.029823
-237.500000 0.180162
-236.500000 0.269384
-235.500000 0.238738
-234.500000 0.178514
-233.500000 0.179564
-232.500000 0.150197
-231.500000 0.178736
-230.500000 0.119754
-229.500000 0.179313
-228.500000 0.059797
-227.500000 0.237381
-226.500000 0.208401
-225.500000 0.089750
-224.500000 0.118697
-223.500000 0.267463
-222.500000 0.268411
-221.500000 0.362466
-220.500000 0.238281
-219.500000 0.179330
-218.500000 0.148787
-217.500000 0.208948
-216.500000 0.149730
-215.500000 0.238963
-214.500000 0.358840
-213.500000 0.238593
-212.500000 0.089375
-211.500000 0.417283
-210.500000 0.238921
-209.500000 0.239180
-208.500000 0.177564
-207.500000 0.239699
-206.500000 0.148943
-205.500000 0.209373
-204.500000 0.269796
-203.500000 0.386221
-202.500000 0.269583
-201.500000 0.269028
-200.500000 0.299596
-199.500000 0.180294
-198.500000 0.268301
-197.500000 0.268219
-196.500000 0.178754
-195.500000 0.359661
-194.500000 0.177514
-193.500000 0.118512
-192.500000 0.296795
-191.500000 0.329486
-190.500000 0.297795
-189.500000 0.267900
-188.500000 0.118222
-187.500000 0.297201
-186.500000 0.149104
-185.500000 0.177412
-184.500000 0.147884
-183.500000 0.324681
-182.500000 0.208283
-181.500000 0.119214
-180.500000 0.177639
-179.500000 0.268546
-178.500000 0.207179
-177.500000 0.178974
-176.500000 0.268932
-175.500000 0.208300
-174.500000 0.267451
-173.500000 0.296775
-172.500000 0.178800
-171.500000 0.207489
-170.500000 0.208384
-169.500000 0.208633
-168.500000 0.298572
-167.500000 0.207211
-166.500000 0.148700
-165.500000 0.206409
-164.500000 0.239769
-163.500000 0.149630
-162.500000 0.149151
-161.500000 0.148108
-160.500000 0.180743
-159.500000 0.178540
-158.500000 0.207296
-157.500000 0.296740
-156.500000 0.178145
-155.500000 0.267138
-154.500000 0.147523
-153.500000 0.208238
-152.500000 0.178353
-151.500000 0.238341
-150.500000 0.208962
-149.500000 0.147699
-148.500000 0.294718
-147.500000 0.207212
-146.500000 0.178939
-145.500000 0.238605
-144.500000 0.267082
-143.500000 0.118341
-142.500000 0.118107
-141.500000 0.236830
-140.500000 0.118752
-139.500000 0.208186
-138.500000 0.088931
-137.500000 0.119036
-136.500000 0.267965
-135.500000 0.236830
-134.500000 0.148311
-133.500000 0.267926
-132.500000 0.296376
-131.500000 0.207444
-130.500000 0.265305
-129.500000 0.208565
-128.500000 0.147878
-127.500000 0.149098
-126.500000 0.385464
-125.500000 0.208458
-124.500000 0.208412
-123.500000 0.356419
-122.500000 0.356247
-121.500000 0.266164
-120.500000 0.384733
-119.500000 0.237489
-118.500000 0.266824
-117.500000 0.178217
-116.500000 0.265888
-115.500000 0.383395
-114.500000 0.325920
-113.500000 0.326332
-112.500000 0.147341
-111.500000 0.119271
-110.500000 0.324773
-109.500000 0.176888
-108.500000 0.205723
-107.500000 0.385682
-106.500000 0.354507
-105.500000 0.176518
-104.500000 0.236815
-103.500000 0.177614
-102.500000 0.000000
-101.500000 0.324402
-100.500000 0.561331
-99.500000 0.088520
-98.500000 0.265805
-97.500000 0.295926
-96.500000 0.267302
-95.500000 0.147670
-94.500000 0.237119
-93.500000 0.147057
-92.500000 0.177464
-91.500000 0.234674
-90.500000 0.237231
-89.500000 0.206112
-88.500000 0.354494
-87.500000 0.206356
-86.500000 0.325374
-85.500000 0.117900
-84.500000 0.296600
-83.500000 0.059713
-82.500000 0.267329
-81.500000 0.265155
-80.500000 0.296800
-79.500000 0.148311
-78.500000 0.088014
-77.500000 0.235274
-76.500000 0.178275
-75.500000 0.118336
-74.500000 0.177944
-73.500000 0.206738
-72.500000 0.355103
-71.500000 0.147492
-70.500000 0.205912
-69.500000 0.294633
-68.500000 0.294870
-67.500000 0.296933
-66.500000 0.235751
-65.500000 0.264548
-64.500000 0.206227
-63.500000 0.266307
-62.500000 0.207115
-61.500000 0.177281
-60.500000 0.206608
-59.500000 0.266107
-58.500000 0.206507
-57.500000 0.296726
-56.500000 0.234506
-55.500000 0.088213
-54.500000 0.264067
-53.500000 0.234537
-52.500000 0.147609
-51.500000 0.237050
-50.500000 0.323145
-49.500000 0.265972
-48.500000 0.296353
-47.500000 0.117754
-46.500000 0.355219
-45.500000 0.295405
-44.500000 0.293022
-43.500000 0.206742
-42.500000 0.146727
-41.500000 0.206314
-40.500000 0.176402
-39.500000 0.235528
-38.500000 0.117963
-37.500000 0.325270
-36.500000 0.297768
-35.500000 0.295695
-34.500000 0.146814
-33.500000 0.295917
-32.500000 0.352156
-31.500000 0.293459
-30.500000 0.206158
-29.500000 0.177005
-28.500000 0.175530
-27.500000 0.206160
-26.500000 0.262966
-25.500000 0.262838
-24.500000 0.176396
-23.500000 0.205272
-22.500000 0.235391
-21.500000 0.147247
-20.500000 0.236450
-19.500000 0.117208
-18.500000 0.443021
-17.500000 0.117621
-16.500000 0.235191
-15.500000 0.206211
-14.500000 0.263641
-13.500000 0.235181
-12.500000 0.263745
-11.500000 0.321329
-10.500000 0.293497
-9.500000 0.237157
-8.500000 0.147162
-7.500000 0.235905
-6.500000 0.322752
-5.500000 0.207038
-4.500000 0.293534
-3.500000 0.234203
-2.500000 0.146259
-1.500000 0.234565
-0.500000 0.235043
0.500000 0.350567
1.500000 0.235166
2.500000 0.473472
3.500000 0.973328
4.500000 1.000000
5.500000 0.906307
6.500000 0.585567
7.500000 0.707508
8.500000 0.586966
9.500000 0.591303
10.500000 0.470090
11.500000 0.590666
12.500000 0.469663
13.500000 0.265032
14.500000 0.414467
15.500000 0.411400
16.500000 0.382716
17.500000 0.408560
18.500000 0.472394
19.500000 0.235202
20.500000 0.174039
21.500000 0.207081
22.500000 0.264128
23.500000 0.353571
24.500000 0.324608
25.500000 0.350560
26.500000 0.264836
27.500000 0.146943
28.500000 0.380231
29.500000 0.234467
30.500000 0.293811
31.500000 0.207314
32.500000 0.146472
33.500000 0.291814
34.500000 0.266001
35.500000 0.205927
36.500000 0.205210
37.500000 0.322745
38.500000 0.263328
39.500000 0.379927
40.500000 0.263870
41.500000 0.263962
42.500000 0.292927
43.500000 0.175695
44.500000 0.380034
45.500000 0.235278
46.500000 0.325014
47.500000 0.117144
48.500000 0.234814
49.500000 0.117169
50.500000 0.323402
51.500000 0.205225
52.500000 0.205560
53.500000 0.292368
54.500000 0.321847
55.500000 0.262203
56.500000 0.234202
57.500000 0.233883
58.500000 0.204419
59.500000 0.235560
60.500000 0.264748
61.500000 0.117398
62.500000 0.116919
63.500000 0.292747
64.500000 0.293569
65.500000 0.353602
66.500000 0.265152
67.500000 0.353699
68.500000 0.235598
69.500000 0.380689
70.500000 0.262278
71.500000 0.204953
72.500000 0.204565
73.500000 0.116069
74.500000 0.148063
75.500000 0.175455
76.500000 0.291681
77.500000 0.175282
78.500000 0.174906
79.500000 0.262790
80.500000 0.437636
81.500000 0.205031
82.500000 0.058717
83.500000 0.176274
84.500000 0.204593
85.500000 0.235796
86.500000 0.205122
87.500000 0.292164
88.500000 0.321870
89.500000 0.322141
90.500000 0.234488
91.500000 0.116907
92.500000 0.409833
93.500000 0.235152
94.500000 0.265357
95.500000 0.058343
96.500000 0.146965
97.500000 0.146841
98.500000 0.321202
99.500000 0.263405
100.500000 0.146431
101.500000 0.116608
102.500000 0.294845
103.500000 0.380190
104.500000 0.321296
105.500000 0.175840
106.500000 0.263514
107.500000 0.292288
108.500000 0.323439
109.500000 0.234286
110.500000 0.116936
111.500000 0.145683
112.500000 0.324214
113.500000 0.203966
114.500000 0.175385
115.500000 0.321917
116.500000 0.204675
117.500000 0.204512
118.500000 0.321245
119.500000 0.263716
120.500000 0.176324
121.500000 0.291455
122.500000 0.088268
123.500000 0.348671
124.500000 0.411562
125.500000 0.234035
126.500000 0.116853
127.500000 0.147132
128.500000 0.175293
129.500000 0.118095
130.500000 0.116868
131.500000 0.234269
132.500000 0.232460
133.500000 0.232707
134.500000 0.146543
135.500000 0.263944
136.500000 0.350980
137.500000 0.263686
138.500000 0.438426
139.500000 0.145938
140.500000 0.174747
141.500000 0.292218
142.500000 0.087463
143.500000 0.204867
144.500000 0.262508
145.500000 0.262603
146.500000 0.469034
147.500000 0.233451
148.500000 0.174743
149.500000 0.205290
150.500000 0.205289
151.500000 0.234873
152.500000 0.322114
153.500000 0.203613
154.500000 0.290923
155.500000 0.058333
156.500000 0.321043
157.500000 0.204584
158.500000 0.349172
159.500000 0.291872
160.500000 0.263667
161.500000 0.234870
162.500000 0.174900
163.500000 0.233658
164.500000 0.233278
165.500000 0.292243
166.500000 0.146969
167.500000 0.088259
168.500000 0.145258
169.500000 0.116298
170.500000 0.087592
171.500000 0.058120
172.500000 0.349535
173.500000 0.233803
174.500000 0.263594
175.500000 0.116569
176.500000 0.262430
177.500000 0.233219
178.500000 0.174221
179.500000 0.291866
180.500000 0.321462
181.500000 0.117152
182.500000 0.261726
183.500000 0.262841
184.500000 0.321981
185.500000 0.231467
186.500000 0.116991
187.500000 0.145475
188.500000 0.233061
189.500000 0.117124
190.500000 0.234485
191.500000 0.174073
192.500000 0.291503
193.500000 0.319928
194.500000 0.380385
195.500000 0.202901
196.500000 0.175858
197.500000 0.203910
198.500000 0.145353
199.500000 0.087410
200.500000 0.233319
201.500000 0.348309
202.500000 0.262578
203.500000 0.320598
204.500000 0.233966
205.500000 0.260277
206.500000 0.204311
207.500000 0.320401
208.500000 0.348999
209.500000 0.351765
210.500000 0.288824
211.500000 0.264535
212.500000 0.262834
213.500000 0.290870
214.500000 0.175175
215.500000 0.232711
216.500000 0.463702
217.500000 0.117090
218.500000 0.204505
219.500000 0.379203
220.500000 0.175141
221.500000 0.174467
222.500000 0.291364
223.500000 0.291336
224.500000 0.203440
225.500000 0.232129
226.500000 0.262890
227.500000 0.174590
228.500000 0.087797
229.500000 0.261546
230.500000 0.233965
231.500000 0.291416
232.500000 0.321226
233.500000 0.174367
234.500000 0.262599
235.500000 0.204075
236.500000 0.232310
237.500000 0.291458
238.500000 0.291793
239.500000 0.289663
240.500000 0.203627
241.500000 0.203415
242.500000 0.173866
243.500000 0.319833
244.500000 0.290479
245.500000 0.115999
246.500000 0.116270
247.500000 0.263857
248.500000 0.203321
249.500000 0.261582
250.500000 0.203889
251.500000 0.174730
252.500000 0.203539
253.500000 0.174662
254.500000 0.376055
255.500000 0.144980
256.500000 0.379495
257.500000 0.320805
258.500000 0.145662
259.500000 0.174923
260.500000 0.291343
261.500000 0.259924
262.500000 0.376592
263.500000 0.493550
264.500000 0.174833
265.500000 0.321212
266.500000 0.232341
267.500000 0.115924
268.500000 0.293414
269.500000 0.146565
270.500000 0.260901
271.500000 0.262674
272.500000 0.232845
273.500000 0.029042
274.500000 0.204283
275.500000 0.086842
276.500000 0.232892
277.500000 0.406108
278.500000 0.233547
279.500000 0.261132
280.500000 0.145147
281.500000 0.174950
282.500000 0.233419
283.500000 0.145197
284.500000 0.146277
285.500000 0.231582
286.500000 0.320223
287.500000 0.262669
288.500000 0.231946
289.500000 0.263046
290.500000 0.116517
291.500000 0.262440
292.500000 0.145214
293.500000 0.291683
294.500000 0.232818
295.500000 0.203235
296.500000 0.348351
297.500000 0.145509
298.500000 0.116335
299.500000 0.320215
