# Left column = Time after Trigger in seconds & Right column = # Counts / Exposure = Flux per cm² s
-299.500000 0.128469
-298.500000 0.128969
-297.500000 0.151308
-296.500000 0.171306
-295.500000 0.214531
-294.500000 0.193396
-293.500000 0.107249
-292.500000 0.256795
-291.500000 0.259875
-290.500000 0.192492
-289.500000 0.171941
-288.500000 0.107491
-287.500000 0.171900
-286.500000 0.235935
-285.500000 0.171909
-284.500000 0.299831
-283.500000 0.280981
-282.500000 0.150701
-281.500000 0.106639
-280.500000 0.195020
-279.500000 0.086399
-278.500000 0.236171
-277.500000 0.172078
-276.500000 0.107367
-275.500000 0.214895
-274.500000 0.300403
-273.500000 0.257623
-272.500000 0.192738
-271.500000 0.215983
-270.500000 0.151427
-269.500000 0.128667
-268.500000 0.214814
-267.500000 0.171279
-266.500000 0.129112
-265.500000 0.106691
-264.500000 0.280479
-263.500000 0.150283
-262.500000 0.281587
-261.500000 0.107559
-260.500000 0.279149
-259.500000 0.236664
-258.500000 0.085794
-257.500000 0.129025
-256.500000 0.172429
-255.500000 0.106998
-254.500000 0.171337
-253.500000 0.170799
-252.500000 0.279108
-251.500000 0.319588
-250.500000 0.085490
-249.500000 0.149734
-248.500000 0.193198
-247.500000 0.235578
-246.500000 0.254978
-245.500000 0.216127
-244.500000 0.127549
-243.500000 0.129526
-242.500000 0.192625
-241.500000 0.192735
-240.500000 0.128720
-239.500000 0.192390
-238.500000 0.362263
-237.500000 0.300446
-236.500000 0.128746
-235.500000 0.193785
-234.500000 0.256976
-233.500000 0.149030
-232.500000 0.214173
-231.500000 0.277759
-230.500000 0.192368
-229.500000 0.299604
-228.500000 0.171713
-227.500000 0.042685
-226.500000 0.236751
-225.500000 0.214550
-224.500000 0.212943
-223.500000 0.214024
-222.500000 0.150480
-221.500000 0.171871
-220.500000 0.192985
-219.500000 0.149168
-218.500000 0.212535
-217.500000 0.235271
-216.500000 0.300593
-215.500000 0.171818
-214.500000 0.150238
-213.500000 0.385608
-212.500000 0.236272
-211.500000 0.063965
-210.500000 0.213958
-209.500000 0.170122
-208.500000 0.171471
-207.500000 0.256925
-206.500000 0.149762
-205.500000 0.128534
-204.500000 0.106741
-203.500000 0.278973
-202.500000 0.235539
-201.500000 0.386810
-200.500000 0.150247
-199.500000 0.128768
-198.500000 0.213483
-197.500000 0.193138
-196.500000 0.148830
-195.500000 0.150099
-194.500000 0.297863
-193.500000 0.150615
-192.500000 0.213491
-191.500000 0.171664
-190.500000 0.085800
-189.500000 0.149207
-188.500000 0.149572
-187.500000 0.192538
-186.500000 0.085911
-185.500000 0.277780
-184.500000 0.256290
-183.500000 0.106876
-182.500000 0.106708
-181.500000 0.128482
-180.500000 0.235835
-179.500000 0.214134
-178.500000 0.277497
-177.500000 0.256536
-176.500000 0.256855
-175.500000 0.277270
-174.500000 0.128369
-173.500000 0.149665
-172.500000 0.235221
-171.500000 0.148965
-170.500000 0.149894
-169.500000 0.170193
-168.500000 0.298583
-167.500000 0.106748
-166.500000 0.169801
-165.500000 0.107446
-164.500000 0.149809
-163.500000 0.192057
-162.500000 0.107043
-161.500000 0.277169
-160.500000 0.128348
-159.500000 0.213724
-158.500000 0.192098
-157.500000 0.235747
-156.500000 0.323292
-155.500000 0.278931
-154.500000 0.406535
-153.500000 0.064206
-152.500000 0.106782
-151.500000 0.106859
-150.500000 0.171838
-149.500000 0.257402
-148.500000 0.148543
-147.500000 0.150332
-146.500000 0.278233
-145.500000 0.214417
-144.500000 0.149218
-143.500000 0.233130
-142.500000 0.149454
-141.500000 0.213535
-140.500000 0.211919
-139.500000 0.278712
-138.500000 0.171896
-137.500000 0.234976
-136.500000 0.171742
-135.500000 0.233888
-134.500000 0.277863
-133.500000 0.277007
-132.500000 0.256192
-131.500000 0.256202
-130.500000 0.234695
-129.500000 0.192217
-128.500000 0.170451
-127.500000 0.171498
-126.500000 0.172144
-125.500000 0.064024
-124.500000 0.254367
-123.500000 0.085462
-122.500000 0.235785
-121.500000 0.234319
-120.500000 0.170707
-119.500000 0.170449
-118.500000 0.127976
-117.500000 0.234080
-116.500000 0.235137
-115.500000 0.064199
-114.500000 0.192605
-113.500000 0.151270
-112.500000 0.127108
-111.500000 0.213599
-110.500000 0.169770
-109.500000 0.085453
-108.500000 0.064457
-107.500000 0.149518
-106.500000 0.150411
-105.500000 0.171632
-104.500000 0.191874
-103.500000 0.191197
-102.500000 0.171478
-101.500000 0.192129
-100.500000 0.105504
-99.500000 0.128090
-98.500000 0.405224
-97.500000 0.171517
-96.500000 0.234372
-95.500000 0.298087
-94.500000 0.233910
-93.500000 0.191253
-92.500000 0.212384
-91.500000 0.148787
-90.500000 0.107266
-89.500000 0.128724
-88.500000 0.128356
-87.500000 0.213216
-86.500000 0.149316
-85.500000 0.191667
-84.500000 0.171725
-83.500000 0.127957
-82.500000 0.149143
-81.500000 0.190974
-80.500000 0.213105
-79.500000 0.299103
-78.500000 0.106536
-77.500000 0.171056
-76.500000 0.212890
-75.500000 0.276889
-74.500000 0.127727
-73.500000 0.150186
-72.500000 0.150317
-71.500000 0.213064
-70.500000 0.213393
-69.500000 0.298960
-68.500000 0.234833
-67.500000 0.212092
-66.500000 0.149592
-65.500000 0.063839
-64.500000 0.214662
-63.500000 0.234424
-62.500000 0.212724
-61.500000 0.233561
-60.500000 0.300874
-59.500000 0.233438
-58.500000 0.277006
-57.500000 0.170374
-56.500000 0.148832
-55.500000 0.148435
-54.500000 0.127592
-53.500000 0.277234
-52.500000 0.191937
-51.500000 0.063893
-50.500000 0.192819
-49.500000 0.127563
-48.500000 0.150580
-47.500000 0.214648
-46.500000 0.192210
-45.500000 0.192582
-44.500000 0.149077
-43.500000 0.149593
-42.500000 0.127648
-41.500000 0.169731
-40.500000 0.190514
-39.500000 0.298946
-38.500000 0.253974
-37.500000 0.126936
-36.500000 0.213191
-35.500000 0.257117
-34.500000 0.212961
-33.500000 0.150583
-32.500000 0.127771
-31.500000 0.171231
-30.500000 0.106174
-29.500000 0.127140
-28.500000 0.190991
-27.500000 0.169288
-26.500000 0.170779
-25.500000 0.234135
-24.500000 0.085407
-23.500000 0.169703
-22.500000 0.169627
-21.500000 0.276522
-20.500000 0.148735
-19.500000 0.235001
-18.500000 0.148826
-17.500000 0.213256
-16.500000 0.127821
-15.500000 0.148369
-14.500000 0.127529
-13.500000 0.170323
-12.500000 0.317340
-11.500000 0.105527
-10.500000 0.233106
-9.500000 0.190421
-8.500000 0.106179
-7.500000 0.257009
-6.500000 0.254967
-5.500000 0.233836
-4.500000 0.148091
-3.500000 0.148802
-2.500000 0.339972
-1.500000 0.232642
-0.500000 0.106477
0.500000 0.148116
1.500000 0.276372
2.500000 0.234498
3.500000 0.212465
4.500000 0.169841
5.500000 0.255422
6.500000 0.212349
7.500000 0.191634
8.500000 0.234081
9.500000 0.085312
10.500000 0.191141
11.500000 0.212788
12.500000 0.063816
13.500000 0.192426
14.500000 0.191233
15.500000 0.297459
16.500000 0.170066
17.500000 0.170745
18.500000 0.234838
19.500000 0.234150
20.500000 0.211576
21.500000 0.190798
22.500000 0.148182
23.500000 0.192043
24.500000 0.255138
25.500000 0.531126
26.500000 0.342269
27.500000 0.277420
28.500000 0.857887
29.500000 1.000000
30.500000 0.903547
31.500000 0.553474
32.500000 0.362096
33.500000 0.554614
34.500000 0.317888
35.500000 0.148367
36.500000 0.212127
37.500000 0.320244
38.500000 0.212060
39.500000 0.190717
40.500000 0.148800
41.500000 0.212095
42.500000 0.168813
43.500000 0.234406
44.500000 0.170703
45.500000 0.147553
46.500000 0.320251
47.500000 0.253991
48.500000 0.169473
49.500000 0.148554
50.500000 0.107253
51.500000 0.212367
52.500000 0.213793
53.500000 0.275673
54.500000 0.213132
55.500000 0.275108
56.500000 0.298684
57.500000 0.168866
58.500000 0.212616
59.500000 0.276080
60.500000 0.084738
61.500000 0.169612
62.500000 0.127098
63.500000 0.149192
64.500000 0.106602
65.500000 0.169432
66.500000 0.170005
67.500000 0.106341
68.500000 0.169380
69.500000 0.106243
70.500000 0.191715
71.500000 0.148114
72.500000 0.127660
73.500000 0.085375
74.500000 0.084484
75.500000 0.170935
76.500000 0.106189
77.500000 0.042707
78.500000 0.149227
79.500000 0.148441
80.500000 0.170890
81.500000 0.213044
82.500000 0.318153
83.500000 0.170207
84.500000 0.212287
85.500000 0.233499
86.500000 0.105561
87.500000 0.276980
88.500000 0.168983
89.500000 0.107065
90.500000 0.191034
91.500000 0.233362
92.500000 0.212769
93.500000 0.298087
94.500000 0.085833
95.500000 0.127236
96.500000 0.169508
97.500000 0.149074
98.500000 0.148768
99.500000 0.169205
100.500000 0.148482
101.500000 0.085179
102.500000 0.234590
103.500000 0.233661
104.500000 0.212865
105.500000 0.233985
106.500000 0.148769
107.500000 0.192457
108.500000 0.319083
109.500000 0.106417
110.500000 0.213648
111.500000 0.298472
112.500000 0.297402
113.500000 0.148932
114.500000 0.169820
115.500000 0.084660
116.500000 0.275641
117.500000 0.212149
118.500000 0.148696
119.500000 0.190885
120.500000 0.126386
121.500000 0.316638
122.500000 0.191030
123.500000 0.170393
124.500000 0.255488
125.500000 0.105969
126.500000 0.148619
127.500000 0.233165
128.500000 0.233529
129.500000 0.168772
130.500000 0.233134
131.500000 0.170037
132.500000 0.106606
133.500000 0.234034
134.500000 0.297162
135.500000 0.127063
136.500000 0.169987
137.500000 0.275718
138.500000 0.255152
139.500000 0.191029
140.500000 0.233491
141.500000 0.084477
142.500000 0.127575
143.500000 0.149177
144.500000 0.106108
145.500000 0.211294
146.500000 0.128656
147.500000 0.232771
148.500000 0.170465
149.500000 0.170343
150.500000 0.147878
151.500000 0.148508
152.500000 0.211947
153.500000 0.190606
154.500000 0.211548
155.500000 0.148458
156.500000 0.318427
157.500000 0.169420
158.500000 0.105875
159.500000 0.170287
160.500000 0.233662
161.500000 0.211846
162.500000 0.191350
163.500000 0.212089
164.500000 0.170397
165.500000 0.189520
166.500000 0.253886
167.500000 0.169835
168.500000 0.191833
169.500000 0.148125
170.500000 0.191258
171.500000 0.255520
172.500000 0.297668
173.500000 0.148889
174.500000 0.189852
175.500000 0.149250
176.500000 0.170691
177.500000 0.234633
178.500000 0.192814
179.500000 0.255057
180.500000 0.085004
181.500000 0.126879
182.500000 0.211476
183.500000 0.318515
184.500000 0.212444
185.500000 0.297379
186.500000 0.106326
187.500000 0.212225
188.500000 0.126607
189.500000 0.296071
190.500000 0.149555
191.500000 0.169992
192.500000 0.255351
193.500000 0.212131
194.500000 0.190604
195.500000 0.212959
196.500000 0.232440
197.500000 0.170158
198.500000 0.337473
199.500000 0.191270
200.500000 0.213287
201.500000 0.148989
202.500000 0.169597
203.500000 0.127012
204.500000 0.127484
205.500000 0.340531
206.500000 0.276319
207.500000 0.212848
208.500000 0.276517
209.500000 0.232955
210.500000 0.212814
211.500000 0.211831
212.500000 0.275609
213.500000 0.170723
214.500000 0.191254
215.500000 0.148973
216.500000 0.298288
217.500000 0.234229
218.500000 0.276955
219.500000 0.148437
220.500000 0.191231
221.500000 0.106705
222.500000 0.149009
223.500000 0.148593
224.500000 0.169890
225.500000 0.234454
226.500000 0.169723
227.500000 0.233887
228.500000 0.170280
229.500000 0.233258
230.500000 0.126783
231.500000 0.148683
232.500000 0.275390
233.500000 0.254886
234.500000 0.170334
235.500000 0.273635
236.500000 0.190598
237.500000 0.191176
238.500000 0.190973
239.500000 0.106817
240.500000 0.254993
241.500000 0.337516
242.500000 0.213120
243.500000 0.254102
244.500000 0.148447
245.500000 0.169165
246.500000 0.149051
247.500000 0.063877
248.500000 0.127605
249.500000 0.212621
250.500000 0.127631
251.500000 0.127209
252.500000 0.212050
253.500000 0.084676
254.500000 0.170023
255.500000 0.127232
256.500000 0.169728
257.500000 0.127455
258.500000 0.169065
259.500000 0.170304
260.500000 0.274897
261.500000 0.127080
262.500000 0.296128
263.500000 0.106274
264.500000 0.234353
265.500000 0.211987
266.500000 0.169478
267.500000 0.211779
268.500000 0.191448
269.500000 0.233891
270.500000 0.213679
271.500000 0.255234
272.500000 0.170027
273.500000 0.127610
274.500000 0.127225
275.500000 0.148211
276.500000 0.148044
277.500000 0.148705
278.500000 0.169240
279.500000 0.170381
280.500000 0.106478
281.500000 0.169265
282.500000 0.233237
283.500000 0.169911
284.500000 0.211737
285.500000 0.149621
286.500000 0.148189
287.500000 0.190296
288.500000 0.256253
289.500000 0.233641
290.500000 0.170364
291.500000 0.296717
292.500000 0.191426
293.500000 0.232487
294.500000 0.211995
295.500000 0.127355
296.500000 0.191235
297.500000 0.190586
298.500000 0.148696
299.500000 0.105864
