# Left column = Time after Trigger in seconds & Right column = # Counts / Exposure = Flux per cm² s
-299.500000 0.197340
-298.500000 0.109115
-297.500000 0.220314
-296.500000 0.197654
-295.500000 0.174593
-294.500000 0.242660
-293.500000 0.152993
-292.500000 0.175775
-291.500000 0.242434
-290.500000 0.087459
-289.500000 0.176665
-288.500000 0.131445
-287.500000 0.108936
-286.500000 0.262484
-285.500000 0.218142
-284.500000 0.218653
-283.500000 0.371845
-282.500000 0.131388
-281.500000 0.066041
-280.500000 0.065445
-279.500000 0.220111
-278.500000 0.350492
-277.500000 0.196983
-276.500000 0.241931
-275.500000 0.242434
-274.500000 0.131446
-273.500000 0.284721
-272.500000 0.131583
-271.500000 0.197057
-270.500000 0.219598
-269.500000 0.131904
-268.500000 0.240630
-267.500000 0.174476
-266.500000 0.196993
-265.500000 0.109338
-264.500000 0.220704
-263.500000 0.262097
-262.500000 0.265135
-261.500000 0.195252
-260.500000 0.284496
-259.500000 0.240752
-258.500000 0.175188
-257.500000 0.109438
-256.500000 0.262257
-255.500000 0.153057
-254.500000 0.326744
-253.500000 0.153039
-252.500000 0.265055
-251.500000 0.284452
-250.500000 0.264010
-249.500000 0.130472
-248.500000 0.175246
-247.500000 0.152796
-246.500000 0.217922
-245.500000 0.218580
-244.500000 0.153690
-243.500000 0.285762
-242.500000 0.308121
-241.500000 0.174519
-240.500000 0.350506
-239.500000 0.240593
-238.500000 0.087195
-237.500000 0.196783
-236.500000 0.218920
-235.500000 0.283419
-234.500000 0.220092
-233.500000 0.196537
-232.500000 0.175718
-231.500000 0.197953
-230.500000 0.217839
-229.500000 0.284362
-228.500000 0.218684
-227.500000 0.220635
-226.500000 0.218260
-225.500000 0.261919
-224.500000 0.284692
-223.500000 0.309141
-222.500000 0.087677
-221.500000 0.176143
-220.500000 0.284604
-219.500000 0.241726
-218.500000 0.174888
-217.500000 0.282963
-216.500000 0.197275
-215.500000 0.174659
-214.500000 0.217971
-213.500000 0.262578
-212.500000 0.173975
-211.500000 0.087509
-210.500000 0.197496
-209.500000 0.153682
-208.500000 0.153045
-207.500000 0.109597
-206.500000 0.131840
-205.500000 0.153997
-204.500000 0.218226
-203.500000 0.196541
-202.500000 0.154683
-201.500000 0.218471
-200.500000 0.153373
-199.500000 0.198411
-198.500000 0.065658
-197.500000 0.239918
-196.500000 0.219116
-195.500000 0.240681
-194.500000 0.197121
-193.500000 0.196396
-192.500000 0.284189
-191.500000 0.109704
-190.500000 0.241288
-189.500000 0.109354
-188.500000 0.240251
-187.500000 0.153871
-186.500000 0.175542
-185.500000 0.131692
-184.500000 0.283835
-183.500000 0.154027
-182.500000 0.174693
-181.500000 0.130870
-180.500000 0.285222
-179.500000 0.264087
-178.500000 0.264849
-177.500000 0.218934
-176.500000 0.175611
-175.500000 0.240214
-174.500000 0.439405
-173.500000 0.174990
-172.500000 0.219493
-171.500000 0.175109
-170.500000 0.263139
-169.500000 0.131798
-168.500000 0.174967
-167.500000 0.327619
-166.500000 0.307081
-165.500000 0.219167
-164.500000 0.263034
-163.500000 0.218116
-162.500000 0.219637
-161.500000 0.242158
-160.500000 0.219563
-159.500000 0.197525
-158.500000 0.153462
-157.500000 0.242152
-156.500000 0.240429
-155.500000 0.263247
-154.500000 0.087878
-153.500000 0.371405
-152.500000 0.174845
-151.500000 0.306945
-150.500000 0.196212
-149.500000 0.305766
-148.500000 0.218729
-147.500000 0.196839
-146.500000 0.153239
-145.500000 0.285002
-144.500000 0.217514
-143.500000 0.240706
-142.500000 0.307986
-141.500000 0.240452
-140.500000 0.152216
-139.500000 0.284393
-138.500000 0.109480
-137.500000 0.132088
-136.500000 0.287052
-135.500000 0.197555
-134.500000 0.131340
-133.500000 0.263120
-132.500000 0.218635
-131.500000 0.153689
-130.500000 0.240090
-129.500000 0.175034
-128.500000 0.284263
-127.500000 0.153851
-126.500000 0.175803
-125.500000 0.109258
-124.500000 0.131999
-123.500000 0.196631
-122.500000 0.195707
-121.500000 0.152353
-120.500000 0.152942
-119.500000 0.218610
-118.500000 0.131779
-117.500000 0.176034
-116.500000 0.241330
-115.500000 0.241276
-114.500000 0.153416
-113.500000 0.176836
-112.500000 0.377122
-111.500000 0.087124
-110.500000 0.262463
-109.500000 0.109736
-108.500000 0.109097
-107.500000 0.152016
-106.500000 0.153713
-105.500000 0.218841
-104.500000 0.284409
-103.500000 0.174545
-102.500000 0.175608
-101.500000 0.175004
-100.500000 0.307016
-99.500000 0.243375
-98.500000 0.219839
-97.500000 0.174948
-96.500000 0.263789
-95.500000 0.175810
-94.500000 0.154527
-93.500000 0.306037
-92.500000 0.197796
-91.500000 0.173945
-90.500000 0.131251
-89.500000 0.131738
-88.500000 0.263083
-87.500000 0.130621
-86.500000 0.394850
-85.500000 0.197761
-84.500000 0.284023
-83.500000 0.196348
-82.500000 0.197414
-81.500000 0.175490
-80.500000 0.284970
-79.500000 0.152752
-78.500000 0.196532
-77.500000 0.174612
-76.500000 0.219641
-75.500000 0.174251
-74.500000 0.152867
-73.500000 0.197441
-72.500000 0.174668
-71.500000 0.263519
-70.500000 0.197947
-69.500000 0.110018
-68.500000 0.153334
-67.500000 0.043781
-66.500000 0.152983
-65.500000 0.153474
-64.500000 0.175188
-63.500000 0.283712
-62.500000 0.153466
-61.500000 0.110182
-60.500000 0.262140
-59.500000 0.218998
-58.500000 0.153157
-57.500000 0.109635
-56.500000 0.153845
-55.500000 0.263801
-54.500000 0.218504
-53.500000 0.110146
-52.500000 0.219247
-51.500000 0.329877
-50.500000 0.262560
-49.500000 0.240261
-48.500000 0.285153
-47.500000 0.217775
-46.500000 0.328705
-45.500000 0.131298
-44.500000 0.263127
-43.500000 0.131150
-42.500000 0.131403
-41.500000 0.175848
-40.500000 0.283440
-39.500000 0.308231
-38.500000 0.132050
-37.500000 0.218782
-36.500000 0.174359
-35.500000 0.217608
-34.500000 0.196357
-33.500000 0.154088
-32.500000 0.218222
-31.500000 0.264968
-30.500000 0.196905
-29.500000 0.284192
-28.500000 0.350876
-27.500000 0.198211
-26.500000 0.198245
-25.500000 0.217804
-24.500000 0.174973
-23.500000 0.240166
-22.500000 0.152122
-21.500000 0.218235
-20.500000 0.283830
-19.500000 0.350230
-18.500000 0.284579
-17.500000 0.218806
-16.500000 0.131071
-15.500000 0.175954
-14.500000 0.286051
-13.500000 0.328648
-12.500000 0.153616
-11.500000 0.285265
-10.500000 0.152503
-9.500000 0.284284
-8.500000 0.240307
-7.500000 0.196692
-6.500000 0.176012
-5.500000 0.152744
-4.500000 0.196442
-3.500000 0.219444
-2.500000 0.220000
-1.500000 0.220275
-0.500000 0.131254
0.500000 0.417083
1.500000 0.218567
2.500000 0.370431
3.500000 0.526933
4.500000 0.418742
5.500000 0.370803
6.500000 0.937995
7.500000 1.000000
8.500000 0.611489
9.500000 0.809631
10.500000 0.483229
11.500000 0.436859
12.500000 0.327709
13.500000 0.393818
14.500000 0.370394
15.500000 0.285636
16.500000 0.284708
17.500000 0.176285
18.500000 0.263461
19.500000 0.131673
20.500000 0.218797
21.500000 0.349825
22.500000 0.153955
23.500000 0.326961
24.500000 0.176152
25.500000 0.307580
26.500000 0.350580
27.500000 0.174656
28.500000 0.285114
29.500000 0.218485
30.500000 0.197250
31.500000 0.263225
32.500000 0.197317
33.500000 0.174306
34.500000 0.264197
35.500000 0.241534
36.500000 0.174965
37.500000 0.109691
38.500000 0.196918
39.500000 0.131008
40.500000 0.109113
41.500000 0.217972
42.500000 0.152064
43.500000 0.153654
44.500000 0.219909
45.500000 0.197948
46.500000 0.262317
47.500000 0.197336
48.500000 0.153076
49.500000 0.262173
50.500000 0.197171
51.500000 0.132440
52.500000 0.306479
53.500000 0.240686
54.500000 0.131505
55.500000 0.348403
56.500000 0.240101
57.500000 0.174206
58.500000 0.263475
59.500000 0.131318
60.500000 0.153829
61.500000 0.087438
62.500000 0.240901
63.500000 0.218265
64.500000 0.196162
65.500000 0.175618
66.500000 0.195889
67.500000 0.219029
68.500000 0.219292
69.500000 0.371976
70.500000 0.217569
71.500000 0.153848
72.500000 0.197076
73.500000 0.197355
74.500000 0.152275
75.500000 0.197052
76.500000 0.306294
77.500000 0.173935
78.500000 0.196663
79.500000 0.262354
80.500000 0.240563
81.500000 0.283882
82.500000 0.218464
83.500000 0.284703
84.500000 0.239501
85.500000 0.175049
86.500000 0.218744
87.500000 0.153033
88.500000 0.284802
89.500000 0.239747
90.500000 0.241493
91.500000 0.175224
92.500000 0.197630
93.500000 0.240950
94.500000 0.198360
95.500000 0.218244
96.500000 0.218450
97.500000 0.241116
98.500000 0.263245
99.500000 0.371753
100.500000 0.197254
101.500000 0.262946
102.500000 0.154013
103.500000 0.219187
104.500000 0.219194
105.500000 0.328540
106.500000 0.217683
107.500000 0.219449
108.500000 0.174589
109.500000 0.217882
110.500000 0.198129
111.500000 0.240789
112.500000 0.285130
113.500000 0.087812
114.500000 0.131164
115.500000 0.327993
116.500000 0.284473
117.500000 0.131739
118.500000 0.285258
119.500000 0.240981
120.500000 0.351377
121.500000 0.261737
122.500000 0.242322
123.500000 0.219059
124.500000 0.281747
125.500000 0.263011
126.500000 0.131427
127.500000 0.174667
128.500000 0.262959
129.500000 0.173846
130.500000 0.219086
131.500000 0.176191
132.500000 0.241227
133.500000 0.241910
134.500000 0.286144
135.500000 0.261387
136.500000 0.306362
137.500000 0.153144
138.500000 0.152651
139.500000 0.241212
140.500000 0.305778
141.500000 0.242010
142.500000 0.218478
143.500000 0.219827
144.500000 0.175326
145.500000 0.173250
146.500000 0.263964
147.500000 0.261127
148.500000 0.131282
149.500000 0.153878
150.500000 0.175986
151.500000 0.197303
152.500000 0.175458
153.500000 0.261607
154.500000 0.242628
155.500000 0.197181
156.500000 0.153253
157.500000 0.326114
158.500000 0.174363
159.500000 0.218678
160.500000 0.131736
161.500000 0.351424
162.500000 0.305953
163.500000 0.131156
164.500000 0.328634
165.500000 0.198165
166.500000 0.130973
167.500000 0.218059
168.500000 0.176256
169.500000 0.285298
170.500000 0.175102
171.500000 0.197533
172.500000 0.153237
173.500000 0.197842
174.500000 0.262832
175.500000 0.217943
176.500000 0.264069
177.500000 0.241576
178.500000 0.110172
179.500000 0.219370
180.500000 0.284689
181.500000 0.240265
182.500000 0.372297
183.500000 0.109492
184.500000 0.109747
185.500000 0.241497
186.500000 0.219109
187.500000 0.199063
188.500000 0.285526
189.500000 0.174711
190.500000 0.174562
191.500000 0.240838
192.500000 0.131771
193.500000 0.219946
194.500000 0.328907
195.500000 0.217659
196.500000 0.132202
197.500000 0.131824
198.500000 0.197807
199.500000 0.241492
200.500000 0.175484
201.500000 0.219511
202.500000 0.394052
203.500000 0.130706
204.500000 0.197860
205.500000 0.351178
206.500000 0.131354
207.500000 0.152806
208.500000 0.219642
209.500000 0.308741
210.500000 0.175775
211.500000 0.417068
212.500000 0.198161
213.500000 0.326546
214.500000 0.285127
215.500000 0.174875
216.500000 0.110311
217.500000 0.154256
218.500000 0.241051
219.500000 0.153361
220.500000 0.152972
221.500000 0.153749
222.500000 0.175332
223.500000 0.287421
224.500000 0.131476
225.500000 0.175736
226.500000 0.175638
227.500000 0.130645
228.500000 0.197595
229.500000 0.065966
230.500000 0.219209
231.500000 0.219202
232.500000 0.219137
233.500000 0.197327
234.500000 0.242914
235.500000 0.196606
236.500000 0.174076
237.500000 0.087664
238.500000 0.350422
239.500000 0.221177
240.500000 0.262788
241.500000 0.065159
242.500000 0.330724
243.500000 0.241018
244.500000 0.198269
245.500000 0.285465
246.500000 0.351624
247.500000 0.241021
248.500000 0.241665
249.500000 0.088313
250.500000 0.044094
251.500000 0.043747
252.500000 0.175775
253.500000 0.131701
254.500000 0.286764
255.500000 0.305047
256.500000 0.131096
257.500000 0.220066
258.500000 0.197439
259.500000 0.175965
260.500000 0.153241
261.500000 0.175006
262.500000 0.285336
263.500000 0.196300
264.500000 0.153862
265.500000 0.350245
266.500000 0.284531
267.500000 0.198328
268.500000 0.241297
269.500000 0.242281
270.500000 0.175397
271.500000 0.261356
272.500000 0.261762
273.500000 0.284809
274.500000 0.154079
275.500000 0.330436
276.500000 0.219453
277.500000 0.240388
278.500000 0.196876
279.500000 0.263074
280.500000 0.285127
281.500000 0.239878
282.500000 0.175488
283.500000 0.174878
284.500000 0.132481
285.500000 0.264918
286.500000 0.153985
287.500000 0.240535
288.500000 0.043792
289.500000 0.396808
290.500000 0.220925
291.500000 0.219653
292.500000 0.175657
293.500000 0.263408
294.500000 0.110189
295.500000 0.240261
296.500000 0.305736
297.500000 0.109939
298.500000 0.263780
299.500000 0.198699
