# Left column = Time after Trigger in seconds & Right column = # Counts / Exposure = Flux per cm² s
-299.500000 0.178985
-298.500000 0.115398
-297.500000 0.090047
-296.500000 0.217400
-295.500000 0.192423
-294.500000 0.179913
-293.500000 0.180292
-292.500000 0.230517
-291.500000 0.153804
-290.500000 0.169174
-289.500000 0.230882
-288.500000 0.128803
-287.500000 0.166525
-286.500000 0.115217
-285.500000 0.192811
-284.500000 0.155522
-283.500000 0.102255
-282.500000 0.230130
-281.500000 0.205594
-280.500000 0.218571
-279.500000 0.181355
-278.500000 0.243855
-277.500000 0.256425
-276.500000 0.141114
-275.500000 0.231314
-274.500000 0.116319
-273.500000 0.168546
-272.500000 0.193129
-271.500000 0.205051
-270.500000 0.218244
-269.500000 0.281802
-268.500000 0.180888
-267.500000 0.115857
-266.500000 0.154476
-265.500000 0.154756
-264.500000 0.244264
-263.500000 0.102461
-262.500000 0.078029
-261.500000 0.090492
-260.500000 0.154787
-259.500000 0.167785
-258.500000 0.218508
-257.500000 0.207026
-256.500000 0.193523
-255.500000 0.154501
-254.500000 0.204297
-253.500000 0.102273
-252.500000 0.116046
-251.500000 0.218420
-250.500000 0.167350
-249.500000 0.142113
-248.500000 0.204802
-247.500000 0.193032
-246.500000 0.295757
-245.500000 0.181778
-244.500000 0.166265
-243.500000 0.206226
-242.500000 0.218591
-241.500000 0.269687
-240.500000 0.166295
-239.500000 0.193680
-238.500000 0.206381
-237.500000 0.154200
-236.500000 0.128739
-235.500000 0.154889
-234.500000 0.218934
-233.500000 0.219392
-232.500000 0.193445
-231.500000 0.191674
-230.500000 0.205807
-229.500000 0.270644
-228.500000 0.244544
-227.500000 0.234241
-226.500000 0.128737
-225.500000 0.115140
-224.500000 0.208130
-223.500000 0.245227
-222.500000 0.154523
-221.500000 0.219212
-220.500000 0.141473
-219.500000 0.155042
-218.500000 0.205740
-217.500000 0.128637
-216.500000 0.246101
-215.500000 0.155229
-214.500000 0.232594
-213.500000 0.167467
-212.500000 0.257269
-211.500000 0.218444
-210.500000 0.180519
-209.500000 0.217146
-208.500000 0.218646
-207.500000 0.129243
-206.500000 0.193022
-205.500000 0.179967
-204.500000 0.270649
-203.500000 0.219696
-202.500000 0.154264
-201.500000 0.180285
-200.500000 0.206495
-199.500000 0.167144
-198.500000 0.296950
-197.500000 0.142544
-196.500000 0.231154
-195.500000 0.219629
-194.500000 0.116326
-193.500000 0.091365
-192.500000 0.178996
-191.500000 0.089749
-190.500000 0.193184
-189.500000 0.208664
-188.500000 0.295176
-187.500000 0.243970
-186.500000 0.166848
-185.500000 0.180564
-184.500000 0.155446
-183.500000 0.129423
-182.500000 0.103231
-181.500000 0.180134
-180.500000 0.192119
-179.500000 0.142651
-178.500000 0.168304
-177.500000 0.170209
-176.500000 0.232883
-175.500000 0.218738
-174.500000 0.167864
-173.500000 0.129558
-172.500000 0.141617
-171.500000 0.217804
-170.500000 0.154614
-169.500000 0.154282
-168.500000 0.129145
-167.500000 0.220127
-166.500000 0.115868
-165.500000 0.116524
-164.500000 0.229402
-163.500000 0.116052
-162.500000 0.128374
-161.500000 0.103230
-160.500000 0.141427
-159.500000 0.180748
-158.500000 0.169403
-157.500000 0.282052
-156.500000 0.102876
-155.500000 0.154311
-154.500000 0.168337
-153.500000 0.180762
-152.500000 0.180331
-151.500000 0.231844
-150.500000 0.180235
-149.500000 0.204597
-148.500000 0.166357
-147.500000 0.194160
-146.500000 0.179963
-145.500000 0.129175
-144.500000 0.104051
-143.500000 0.142608
-142.500000 0.270689
-141.500000 0.154997
-140.500000 0.181176
-139.500000 0.129496
-138.500000 0.220154
-137.500000 0.166925
-136.500000 0.231750
-135.500000 0.192937
-134.500000 0.156659
-133.500000 0.168758
-132.500000 0.077559
-131.500000 0.218399
-130.500000 0.142261
-129.500000 0.257870
-128.500000 0.243175
-127.500000 0.193873
-126.500000 0.233739
-125.500000 0.077464
-124.500000 0.206852
-123.500000 0.116003
-122.500000 0.194538
-121.500000 0.141929
-120.500000 0.195359
-119.500000 0.195010
-118.500000 0.206419
-117.500000 0.205825
-116.500000 0.115898
-115.500000 0.077684
-114.500000 0.245018
-113.500000 0.157087
-112.500000 0.141595
-111.500000 0.154552
-110.500000 0.155322
-109.500000 0.154598
-108.500000 0.116481
-107.500000 0.142638
-106.500000 0.181757
-105.500000 0.180017
-104.500000 0.335836
-103.500000 0.180602
-102.500000 0.244638
-101.500000 0.129345
-100.500000 0.295683
-99.500000 0.180393
-98.500000 0.154373
-97.500000 0.155996
-96.500000 0.142781
-95.500000 0.155466
-94.500000 0.130147
-93.500000 0.309672
-92.500000 0.217483
-91.500000 0.181602
-90.500000 0.206718
-89.500000 0.272698
-88.500000 0.166658
-87.500000 0.104259
-86.500000 0.181116
-85.500000 0.168067
-84.500000 0.181620
-83.500000 0.167845
-82.500000 0.181537
-81.500000 0.230541
-80.500000 0.154185
-79.500000 0.231235
-78.500000 0.168931
-77.500000 0.167451
-76.500000 0.129186
-75.500000 0.220397
-74.500000 0.115833
-73.500000 0.219816
-72.500000 0.154922
-71.500000 0.154008
-70.500000 0.192331
-69.500000 0.258547
-68.500000 0.129069
-67.500000 0.154826
-66.500000 0.205597
-65.500000 0.194515
-64.500000 0.129486
-63.500000 0.180801
-62.500000 0.193926
-61.500000 0.166784
-60.500000 0.142289
-59.500000 0.168052
-58.500000 0.142492
-57.500000 0.155673
-56.500000 0.129814
-55.500000 0.116254
-54.500000 0.193910
-53.500000 0.245218
-52.500000 0.206671
-51.500000 0.219079
-50.500000 0.116127
-49.500000 0.167748
-48.500000 0.193247
-47.500000 0.156525
-46.500000 0.245572
-45.500000 0.285672
-44.500000 0.219548
-43.500000 0.207061
-42.500000 0.220881
-41.500000 0.221167
-40.500000 0.142220
-39.500000 0.193275
-38.500000 0.168102
-37.500000 0.206403
-36.500000 0.233184
-35.500000 0.078054
-34.500000 0.166983
-33.500000 0.154706
-32.500000 0.167686
-31.500000 0.090218
-30.500000 0.180437
-29.500000 0.103487
-28.500000 0.258553
-27.500000 0.219280
-26.500000 0.167306
-25.500000 0.064888
-24.500000 0.194509
-23.500000 0.155983
-22.500000 0.208288
-21.500000 0.270409
-20.500000 0.168787
-19.500000 0.192854
-18.500000 0.115921
-17.500000 0.193597
-16.500000 0.180261
-15.500000 0.207578
-14.500000 0.297655
-13.500000 0.193336
-12.500000 0.167451
-11.500000 0.192556
-10.500000 0.220338
-9.500000 0.129242
-8.500000 0.207351
-7.500000 0.129202
-6.500000 0.116420
-5.500000 0.181754
-4.500000 0.167700
-3.500000 0.180927
-2.500000 0.271973
-1.500000 0.441505
-0.500000 0.467404
0.500000 0.529448
1.500000 0.724511
2.500000 1.000000
3.500000 0.609201
4.500000 0.452788
5.500000 0.310289
6.500000 0.323997
7.500000 0.271849
8.500000 0.464595
9.500000 0.322365
10.500000 0.297424
11.500000 0.285688
12.500000 0.285127
13.500000 0.282845
14.500000 0.336457
15.500000 0.181336
16.500000 0.193738
17.500000 0.270468
18.500000 0.272028
19.500000 0.220249
20.500000 0.181437
21.500000 0.206498
22.500000 0.244481
23.500000 0.142721
24.500000 0.155945
25.500000 0.116202
26.500000 0.180673
27.500000 0.181051
28.500000 0.116453
29.500000 0.207672
30.500000 0.142310
31.500000 0.231806
32.500000 0.207857
33.500000 0.232223
34.500000 0.180163
35.500000 0.219929
36.500000 0.260141
37.500000 0.115836
38.500000 0.155134
39.500000 0.195045
40.500000 0.182447
41.500000 0.153928
42.500000 0.168636
43.500000 0.180010
44.500000 0.156046
45.500000 0.168104
46.500000 0.234479
47.500000 0.128699
48.500000 0.167438
49.500000 0.142014
50.500000 0.141091
51.500000 0.221855
52.500000 0.129134
53.500000 0.257647
54.500000 0.102547
55.500000 0.154302
56.500000 0.169553
57.500000 0.194132
58.500000 0.103293
59.500000 0.181856
60.500000 0.180808
61.500000 0.232193
62.500000 0.129000
63.500000 0.181767
64.500000 0.155979
65.500000 0.274138
66.500000 0.246917
67.500000 0.181630
68.500000 0.232054
69.500000 0.142346
70.500000 0.207068
71.500000 0.220916
72.500000 0.090260
73.500000 0.246319
74.500000 0.142878
75.500000 0.181353
76.500000 0.206001
77.500000 0.233402
78.500000 0.103960
79.500000 0.168115
80.500000 0.167010
81.500000 0.217423
82.500000 0.116641
83.500000 0.103387
84.500000 0.168772
85.500000 0.167200
86.500000 0.180929
87.500000 0.115700
88.500000 0.154218
89.500000 0.169464
90.500000 0.129215
91.500000 0.168207
92.500000 0.192479
93.500000 0.218390
94.500000 0.156499
95.500000 0.115768
96.500000 0.128323
97.500000 0.193430
98.500000 0.167883
99.500000 0.129071
100.500000 0.153851
101.500000 0.231617
102.500000 0.231836
103.500000 0.116291
104.500000 0.271047
105.500000 0.141293
106.500000 0.244778
107.500000 0.181966
108.500000 0.180454
109.500000 0.207349
110.500000 0.155932
111.500000 0.115750
112.500000 0.103741
113.500000 0.117588
114.500000 0.141786
115.500000 0.205594
116.500000 0.207397
117.500000 0.246431
118.500000 0.180887
119.500000 0.205287
120.500000 0.128426
121.500000 0.232289
122.500000 0.154912
123.500000 0.191699
124.500000 0.103227
125.500000 0.282391
126.500000 0.167949
127.500000 0.142113
128.500000 0.206443
129.500000 0.128960
130.500000 0.128589
131.500000 0.193744
132.500000 0.230704
133.500000 0.194040
134.500000 0.180042
135.500000 0.156001
136.500000 0.167412
137.500000 0.179712
138.500000 0.090924
139.500000 0.230508
140.500000 0.244178
141.500000 0.115368
142.500000 0.207835
143.500000 0.102659
144.500000 0.141097
145.500000 0.231716
146.500000 0.142406
147.500000 0.154332
148.500000 0.192743
149.500000 0.090385
150.500000 0.167675
151.500000 0.217754
152.500000 0.219756
153.500000 0.167999
154.500000 0.231647
155.500000 0.167662
156.500000 0.205507
157.500000 0.205030
158.500000 0.142835
159.500000 0.141504
160.500000 0.258103
161.500000 0.193078
162.500000 0.154916
163.500000 0.219279
164.500000 0.193607
165.500000 0.077373
166.500000 0.089486
167.500000 0.232572
168.500000 0.154443
169.500000 0.233706
170.500000 0.128555
171.500000 0.194237
172.500000 0.180610
173.500000 0.193455
174.500000 0.205577
175.500000 0.142249
176.500000 0.194192
177.500000 0.153096
178.500000 0.243625
179.500000 0.244402
180.500000 0.115798
181.500000 0.142131
182.500000 0.141700
183.500000 0.244318
184.500000 0.154667
185.500000 0.230519
186.500000 0.115623
187.500000 0.166636
188.500000 0.206994
189.500000 0.141757
190.500000 0.179107
191.500000 0.195099
192.500000 0.129151
193.500000 0.204546
194.500000 0.181324
195.500000 0.115955
196.500000 0.128615
197.500000 0.205864
198.500000 0.167409
199.500000 0.179437
200.500000 0.179902
201.500000 0.141330
202.500000 0.179728
203.500000 0.232153
204.500000 0.256750
205.500000 0.168547
206.500000 0.191612
207.500000 0.219950
208.500000 0.205309
209.500000 0.181112
210.500000 0.165057
211.500000 0.142129
212.500000 0.089759
213.500000 0.178992
214.500000 0.166694
215.500000 0.089911
216.500000 0.129318
217.500000 0.192473
218.500000 0.142042
219.500000 0.179761
220.500000 0.205281
221.500000 0.077417
222.500000 0.179862
223.500000 0.257220
224.500000 0.181472
225.500000 0.063783
226.500000 0.231398
227.500000 0.154427
228.500000 0.128849
229.500000 0.141603
230.500000 0.156119
231.500000 0.205599
232.500000 0.179473
233.500000 0.166545
234.500000 0.218256
235.500000 0.128990
236.500000 0.181869
237.500000 0.141817
238.500000 0.243402
239.500000 0.155274
240.500000 0.178808
241.500000 0.167187
242.500000 0.103819
243.500000 0.205598
244.500000 0.127809
245.500000 0.116265
246.500000 0.207934
247.500000 0.140102
248.500000 0.193007
249.500000 0.191415
250.500000 0.179619
251.500000 0.128045
252.500000 0.207466
253.500000 0.207742
254.500000 0.127665
255.500000 0.090639
256.500000 0.164953
257.500000 0.128370
258.500000 0.127224
259.500000 0.205030
260.500000 0.204742
261.500000 0.141457
262.500000 0.154307
263.500000 0.167333
264.500000 0.165471
265.500000 0.102508
266.500000 0.232566
267.500000 0.115820
268.500000 0.115173
269.500000 0.115762
270.500000 0.153538
271.500000 0.115759
272.500000 0.102849
273.500000 0.089058
274.500000 0.140333
275.500000 0.166285
276.500000 0.167138
277.500000 0.217947
278.500000 0.180665
279.500000 0.231998
280.500000 0.257458
281.500000 0.167435
282.500000 0.129761
283.500000 0.154074
284.500000 0.165388
285.500000 0.166838
286.500000 0.153637
287.500000 0.207013
288.500000 0.141472
289.500000 0.102575
290.500000 0.153049
291.500000 0.089995
292.500000 0.114681
293.500000 0.218683
294.500000 0.153411
295.500000 0.245046
296.500000 0.232335
297.500000 0.178665
298.500000 0.153376
299.500000 0.231489
