# Left column = Time after Trigger in seconds & Right column = # Counts / Exposure = Flux per cm² s
-299.500000 0.206311
-298.500000 0.392839
-297.500000 0.161721
-296.500000 0.252882
-295.500000 0.137964
-294.500000 0.276588
-293.500000 0.184754
-292.500000 0.161517
-291.500000 0.230714
-290.500000 0.230637
-289.500000 0.347178
-288.500000 0.184571
-287.500000 0.208006
-286.500000 0.231117
-285.500000 0.346840
-284.500000 0.325310
-283.500000 0.230909
-282.500000 0.114221
-281.500000 0.230368
-280.500000 0.277333
-279.500000 0.160867
-278.500000 0.069414
-277.500000 0.115122
-276.500000 0.253550
-275.500000 0.159746
-274.500000 0.184946
-273.500000 0.207564
-272.500000 0.277650
-271.500000 0.205808
-270.500000 0.184282
-269.500000 0.160806
-268.500000 0.207600
-267.500000 0.184989
-266.500000 0.115224
-265.500000 0.232641
-264.500000 0.160774
-263.500000 0.321887
-262.500000 0.276625
-261.500000 0.208147
-260.500000 0.208421
-259.500000 0.300145
-258.500000 0.276181
-257.500000 0.184353
-256.500000 0.252733
-255.500000 0.349519
-254.500000 0.278660
-253.500000 0.139720
-252.500000 0.230459
-251.500000 0.161166
-250.500000 0.346876
-249.500000 0.115783
-248.500000 0.092341
-247.500000 0.231198
-246.500000 0.299979
-245.500000 0.138537
-244.500000 0.162173
-243.500000 0.185433
-242.500000 0.231337
-241.500000 0.254037
-240.500000 0.185825
-239.500000 0.207102
-238.500000 0.161622
-237.500000 0.254206
-236.500000 0.369115
-235.500000 0.091903
-234.500000 0.208446
-233.500000 0.162382
-232.500000 0.300944
-231.500000 0.206530
-230.500000 0.275855
-229.500000 0.279345
-228.500000 0.069647
-227.500000 0.231649
-226.500000 0.186299
-225.500000 0.232018
-224.500000 0.208052
-223.500000 0.186134
-222.500000 0.183951
-221.500000 0.159985
-220.500000 0.232575
-219.500000 0.115945
-218.500000 0.230970
-217.500000 0.301031
-216.500000 0.323019
-215.500000 0.369678
-214.500000 0.069733
-213.500000 0.209180
-212.500000 0.254927
-211.500000 0.255654
-210.500000 0.394402
-209.500000 0.116044
-208.500000 0.184742
-207.500000 0.184676
-206.500000 0.163381
-205.500000 0.231612
-204.500000 0.184186
-203.500000 0.185749
-202.500000 0.070291
-201.500000 0.231418
-200.500000 0.187695
-199.500000 0.303565
-198.500000 0.023214
-197.500000 0.186868
-196.500000 0.208154
-195.500000 0.092952
-194.500000 0.207626
-193.500000 0.233248
-192.500000 0.186225
-191.500000 0.327091
-190.500000 0.231708
-189.500000 0.186744
-188.500000 0.116009
-187.500000 0.303284
-186.500000 0.324667
-185.500000 0.186531
-184.500000 0.231299
-183.500000 0.186593
-182.500000 0.115378
-181.500000 0.115906
-180.500000 0.277518
-179.500000 0.185578
-178.500000 0.186490
-177.500000 0.277441
-176.500000 0.234241
-175.500000 0.139480
-174.500000 0.326906
-173.500000 0.208761
-172.500000 0.300956
-171.500000 0.232358
-170.500000 0.254324
-169.500000 0.209321
-168.500000 0.209819
-167.500000 0.231597
-166.500000 0.278829
-165.500000 0.164255
-164.500000 0.256501
-163.500000 0.278661
-162.500000 0.209231
-161.500000 0.276714
-160.500000 0.115840
-159.500000 0.326278
-158.500000 0.278049
-157.500000 0.278775
-156.500000 0.139435
-155.500000 0.209553
-154.500000 0.139996
-153.500000 0.231343
-152.500000 0.350160
-151.500000 0.277915
-150.500000 0.116775
-149.500000 0.372527
-148.500000 0.279985
-147.500000 0.328036
-146.500000 0.186073
-145.500000 0.302307
-144.500000 0.187829
-143.500000 0.234725
-142.500000 0.255934
-141.500000 0.233470
-140.500000 0.188004
-139.500000 0.257298
-138.500000 0.185383
-137.500000 0.187635
-136.500000 0.279454
-135.500000 0.116727
-134.500000 0.163974
-133.500000 0.186888
-132.500000 0.185945
-131.500000 0.234900
-130.500000 0.441094
-129.500000 0.257114
-128.500000 0.279882
-127.500000 0.417402
-126.500000 0.419518
-125.500000 0.255281
-124.500000 0.186829
-123.500000 0.162551
-122.500000 0.303498
-121.500000 0.210507
-120.500000 0.326220
-119.500000 0.232489
-118.500000 0.094052
-117.500000 0.281121
-116.500000 0.162756
-115.500000 0.185381
-114.500000 0.255522
-113.500000 0.185311
-112.500000 0.256417
-111.500000 0.280533
-110.500000 0.185995
-109.500000 0.303731
-108.500000 0.163705
-107.500000 0.186502
-106.500000 0.279040
-105.500000 0.070614
-104.500000 0.233283
-103.500000 0.445836
-102.500000 0.256990
-101.500000 0.233172
-100.500000 0.281328
-99.500000 0.185908
-98.500000 0.232990
-97.500000 0.186648
-96.500000 0.303130
-95.500000 0.253649
-94.500000 0.257553
-93.500000 0.232765
-92.500000 0.490501
-91.500000 0.278748
-90.500000 0.140535
-89.500000 0.325766
-88.500000 0.186526
-87.500000 0.140341
-86.500000 0.210555
-85.500000 0.257302
-84.500000 0.211039
-83.500000 0.184741
-82.500000 0.209950
-81.500000 0.164065
-80.500000 0.209952
-79.500000 0.139791
-78.500000 0.209987
-77.500000 0.324698
-76.500000 0.258074
-75.500000 0.164980
-74.500000 0.257910
-73.500000 0.324607
-72.500000 0.328241
-71.500000 0.280178
-70.500000 0.282643
-69.500000 0.258018
-68.500000 0.257589
-67.500000 0.302582
-66.500000 0.117626
-65.500000 0.279917
-64.500000 0.164250
-63.500000 0.165738
-62.500000 0.209975
-61.500000 0.094620
-60.500000 0.352664
-59.500000 0.256936
-58.500000 0.188677
-57.500000 0.232592
-56.500000 0.282986
-55.500000 0.306837
-54.500000 0.163614
-53.500000 0.188385
-52.500000 0.303967
-51.500000 0.211643
-50.500000 0.164782
-49.500000 0.069965
-48.500000 0.234242
-47.500000 0.374211
-46.500000 0.282174
-45.500000 0.211999
-44.500000 0.330219
-43.500000 0.211263
-42.500000 0.396346
-41.500000 0.186373
-40.500000 0.418789
-39.500000 0.187680
-38.500000 0.164109
-37.500000 0.259192
-36.500000 0.186574
-35.500000 0.400845
-34.500000 0.141438
-33.500000 0.164632
-32.500000 0.164651
-31.500000 0.260853
-30.500000 0.117222
-29.500000 0.351772
-28.500000 0.212116
-27.500000 0.302137
-26.500000 0.140734
-25.500000 0.282889
-24.500000 0.140711
-23.500000 0.257493
-22.500000 0.163582
-21.500000 0.211627
-20.500000 0.493683
-19.500000 0.545192
-18.500000 0.093454
-17.500000 0.235567
-16.500000 0.283984
-15.500000 0.234696
-14.500000 0.304628
-13.500000 0.187754
-12.500000 0.329286
-11.500000 0.399144
-10.500000 0.258432
-9.500000 0.140318
-8.500000 0.280437
-7.500000 0.117604
-6.500000 0.330306
-5.500000 0.234927
-4.500000 0.282614
-3.500000 0.328667
-2.500000 0.211613
-1.500000 0.236787
-0.500000 0.304908
0.500000 0.211821
1.500000 0.236534
2.500000 0.305396
3.500000 0.212830
4.500000 0.237115
5.500000 0.211587
6.500000 0.257978
7.500000 0.094088
8.500000 0.330145
9.500000 0.304198
10.500000 0.304607
11.500000 0.236615
12.500000 0.118270
13.500000 0.213996
14.500000 0.425695
15.500000 0.189548
16.500000 0.307793
17.500000 0.402256
18.500000 0.304726
19.500000 0.212830
20.500000 0.353198
21.500000 0.452247
22.500000 0.590932
23.500000 0.732507
24.500000 1.000000
25.500000 0.947632
26.500000 0.897959
27.500000 0.734832
28.500000 0.736026
29.500000 0.612495
30.500000 0.616838
31.500000 0.543769
32.500000 0.354242
33.500000 0.425073
34.500000 0.519674
35.500000 0.449414
36.500000 0.473280
37.500000 0.329973
38.500000 0.375879
39.500000 0.401205
40.500000 0.212643
41.500000 0.212451
42.500000 0.234835
43.500000 0.308918
44.500000 0.189712
45.500000 0.332760
46.500000 0.211428
47.500000 0.379099
48.500000 0.306387
49.500000 0.335309
50.500000 0.352350
51.500000 0.354568
52.500000 0.331106
53.500000 0.471253
54.500000 0.187773
55.500000 0.328944
56.500000 0.282898
57.500000 0.259159
58.500000 0.377096
59.500000 0.331546
60.500000 0.165989
61.500000 0.188376
62.500000 0.400602
63.500000 0.285877
64.500000 0.141015
65.500000 0.236979
66.500000 0.308569
67.500000 0.284625
68.500000 0.306238
69.500000 0.236410
70.500000 0.235841
71.500000 0.356989
72.500000 0.260117
73.500000 0.236771
74.500000 0.118079
75.500000 0.379393
76.500000 0.378466
77.500000 0.286865
78.500000 0.282630
79.500000 0.142073
80.500000 0.284111
81.500000 0.454201
82.500000 0.236390
83.500000 0.352510
84.500000 0.331324
85.500000 0.284141
86.500000 0.331494
87.500000 0.404227
88.500000 0.306654
89.500000 0.260205
90.500000 0.260683
91.500000 0.377214
92.500000 0.214445
93.500000 0.142108
94.500000 0.260306
95.500000 0.284465
96.500000 0.306242
97.500000 0.501516
98.500000 0.189519
99.500000 0.260247
100.500000 0.188951
101.500000 0.189516
102.500000 0.332019
103.500000 0.377253
104.500000 0.142240
105.500000 0.261593
106.500000 0.374530
107.500000 0.377777
108.500000 0.331362
109.500000 0.475186
110.500000 0.427251
111.500000 0.282230
112.500000 0.334275
113.500000 0.094585
114.500000 0.328458
115.500000 0.307528
116.500000 0.548457
117.500000 0.283726
118.500000 0.258618
119.500000 0.450254
120.500000 0.258761
121.500000 0.258511
122.500000 0.353034
123.500000 0.309350
124.500000 0.163992
125.500000 0.212382
126.500000 0.070982
127.500000 0.450519
128.500000 0.307640
129.500000 0.214602
130.500000 0.284194
131.500000 0.190090
132.500000 0.211742
133.500000 0.141802
134.500000 0.259916
135.500000 0.117999
136.500000 0.213183
137.500000 0.236563
138.500000 0.189123
139.500000 0.285783
140.500000 0.377852
141.500000 0.259075
142.500000 0.259960
143.500000 0.165445
144.500000 0.284456
145.500000 0.237660
146.500000 0.404165
147.500000 0.236838
148.500000 0.353808
149.500000 0.306993
150.500000 0.353305
151.500000 0.284888
152.500000 0.119253
153.500000 0.356024
154.500000 0.332285
155.500000 0.189673
156.500000 0.286043
157.500000 0.238302
158.500000 0.380608
159.500000 0.424588
160.500000 0.426695
161.500000 0.166019
162.500000 0.334354
163.500000 0.355150
164.500000 0.188494
165.500000 0.283297
166.500000 0.380026
167.500000 0.332748
168.500000 0.329911
169.500000 0.235716
170.500000 0.237504
171.500000 0.427965
172.500000 0.283209
173.500000 0.285978
174.500000 0.166306
175.500000 0.235788
176.500000 0.355650
177.500000 0.402287
178.500000 0.214304
179.500000 0.353804
180.500000 0.213319
181.500000 0.330128
182.500000 0.237081
183.500000 0.212393
184.500000 0.142124
185.500000 0.333455
186.500000 0.236326
187.500000 0.284064
188.500000 0.429833
189.500000 0.286209
190.500000 0.306267
191.500000 0.259902
192.500000 0.308794
193.500000 0.426232
194.500000 0.188251
195.500000 0.095141
196.500000 0.141468
197.500000 0.211973
198.500000 0.285348
199.500000 0.356359
200.500000 0.284236
201.500000 0.358133
202.500000 0.330338
203.500000 0.190875
204.500000 0.308759
205.500000 0.356353
206.500000 0.215873
207.500000 0.237124
208.500000 0.309265
209.500000 0.286388
210.500000 0.190169
211.500000 0.214507
212.500000 0.239369
213.500000 0.166701
214.500000 0.424157
215.500000 0.309860
216.500000 0.095184
217.500000 0.453655
218.500000 0.309611
219.500000 0.287095
220.500000 0.214130
221.500000 0.356702
222.500000 0.334641
223.500000 0.283455
224.500000 0.286620
225.500000 0.408868
226.500000 0.334031
227.500000 0.335103
228.500000 0.429620
229.500000 0.403061
230.500000 0.189801
231.500000 0.166661
232.500000 0.454236
233.500000 0.261477
234.500000 0.284612
235.500000 0.335190
236.500000 0.143917
237.500000 0.284585
238.500000 0.165971
239.500000 0.190994
240.500000 0.190678
241.500000 0.357096
242.500000 0.312417
243.500000 0.311276
244.500000 0.285335
245.500000 0.357262
246.500000 0.240080
247.500000 0.192714
248.500000 0.288911
249.500000 0.262010
250.500000 0.403515
251.500000 0.311909
252.500000 0.331533
253.500000 0.312488
254.500000 0.380557
255.500000 0.262728
256.500000 0.214988
257.500000 0.335509
258.500000 0.284965
259.500000 0.212777
260.500000 0.192435
261.500000 0.212789
262.500000 0.309886
263.500000 0.237698
264.500000 0.289694
265.500000 0.284011
266.500000 0.263706
267.500000 0.335844
268.500000 0.308553
269.500000 0.286577
270.500000 0.191711
271.500000 0.357703
272.500000 0.410625
273.500000 0.358810
274.500000 0.213911
275.500000 0.095388
276.500000 0.406514
277.500000 0.477898
278.500000 0.503435
279.500000 0.312870
280.500000 0.191689
281.500000 0.190521
282.500000 0.262332
283.500000 0.238019
284.500000 0.216052
285.500000 0.382311
286.500000 0.237880
287.500000 0.310610
288.500000 0.385535
289.500000 0.361130
290.500000 0.287239
291.500000 0.239282
292.500000 0.310478
293.500000 0.288283
294.500000 0.240042
295.500000 0.239570
296.500000 0.260246
297.500000 0.190650
298.500000 0.192654
299.500000 0.240361
