# Left column = Time after Trigger in seconds & Right column = # Counts / Exposure = Flux per cm² s
-299.500000 0.017786
-298.500000 0.125571
-297.500000 0.071222
-296.500000 0.053383
-295.500000 0.107506
-294.500000 0.142358
-293.500000 0.141397
-292.500000 0.089200
-291.500000 0.123935
-290.500000 0.053162
-289.500000 0.071248
-288.500000 0.071261
-287.500000 0.142894
-286.500000 0.053591
-285.500000 0.035577
-284.500000 0.107909
-283.500000 0.125671
-282.500000 0.035982
-281.500000 0.178086
-280.500000 0.124135
-279.500000 0.107423
-278.500000 0.142977
-277.500000 0.106749
-276.500000 0.215159
-275.500000 0.071639
-274.500000 0.035681
-273.500000 0.124958
-272.500000 0.107433
-271.500000 0.071028
-270.500000 0.071348
-269.500000 0.142041
-268.500000 0.249080
-267.500000 0.089181
-266.500000 0.124858
-265.500000 0.088757
-264.500000 0.159959
-263.500000 0.143470
-262.500000 0.161018
-261.500000 0.143576
-260.500000 0.089175
-259.500000 0.106522
-258.500000 0.107941
-257.500000 0.177960
-256.500000 0.249545
-255.500000 0.160663
-254.500000 0.106537
-253.500000 0.088692
-252.500000 0.035821
-251.500000 0.053313
-250.500000 0.124343
-249.500000 0.161895
-248.500000 0.124327
-247.500000 0.106445
-246.500000 0.159409
-245.500000 0.141754
-244.500000 0.053342
-243.500000 0.142421
-242.500000 0.178650
-241.500000 0.178129
-240.500000 0.071539
-239.500000 0.107028
-238.500000 0.106974
-237.500000 0.124689
-236.500000 0.071479
-235.500000 0.125408
-234.500000 0.125379
-233.500000 0.071066
-232.500000 0.106985
-231.500000 0.124822
-230.500000 0.160527
-229.500000 0.160293
-228.500000 0.124797
-227.500000 0.177758
-226.500000 0.141881
-225.500000 0.196662
-224.500000 0.196270
-223.500000 0.071116
-222.500000 0.124282
-221.500000 0.106929
-220.500000 0.178283
-219.500000 0.179194
-218.500000 0.141983
-217.500000 0.178797
-216.500000 0.123319
-215.500000 0.089152
-214.500000 0.088652
-213.500000 0.213569
-212.500000 0.106236
-211.500000 0.107184
-210.500000 0.195187
-209.500000 0.089186
-208.500000 0.142838
-207.500000 0.107035
-206.500000 0.125063
-205.500000 0.142263
-204.500000 0.195613
-203.500000 0.178259
-202.500000 0.142308
-201.500000 0.179011
-200.500000 0.142356
-199.500000 0.195472
-198.500000 0.194630
-197.500000 0.194590
-196.500000 0.106388
-195.500000 0.159805
-194.500000 0.196825
-193.500000 0.267399
-192.500000 0.070682
-191.500000 0.231891
-190.500000 0.212778
-189.500000 0.249271
-188.500000 0.106947
-187.500000 0.160839
-186.500000 0.143326
-185.500000 0.212661
-184.500000 0.213382
-183.500000 0.071356
-182.500000 0.071525
-181.500000 0.124987
-180.500000 0.178819
-179.500000 0.124846
-178.500000 0.124744
-177.500000 0.195628
-176.500000 0.088645
-175.500000 0.195587
-174.500000 0.159879
-173.500000 0.088718
-172.500000 0.088563
-171.500000 0.142166
-170.500000 0.142868
-169.500000 0.195775
-168.500000 0.251036
-167.500000 0.124040
-166.500000 0.070905
-165.500000 0.159884
-164.500000 0.158895
-163.500000 0.178383
-162.500000 0.176178
-161.500000 0.142017
-160.500000 0.089141
-159.500000 0.233460
-158.500000 0.142421
-157.500000 0.195014
-156.500000 0.196167
-155.500000 0.212937
-154.500000 0.106044
-153.500000 0.106400
-152.500000 0.106235
-151.500000 0.141840
-150.500000 0.106742
-149.500000 0.106791
-148.500000 0.070883
-147.500000 0.142392
-146.500000 0.124290
-145.500000 0.142399
-144.500000 0.089007
-143.500000 0.124567
-142.500000 0.158881
-141.500000 0.088187
-140.500000 0.107221
-139.500000 0.088680
-138.500000 0.231043
-137.500000 0.106682
-136.500000 0.249261
-135.500000 0.106512
-134.500000 0.250464
-133.500000 0.177479
-132.500000 0.106304
-131.500000 0.178947
-130.500000 0.106636
-129.500000 0.143866
-128.500000 0.107136
-127.500000 0.142689
-126.500000 0.196145
-125.500000 0.159375
-124.500000 0.142734
-123.500000 0.161630
-122.500000 0.071542
-121.500000 0.088929
-120.500000 0.177929
-119.500000 0.213772
-118.500000 0.214232
-117.500000 0.106367
-116.500000 0.124665
-115.500000 0.070732
-114.500000 0.195658
-113.500000 0.106489
-112.500000 0.141984
-111.500000 0.247091
-110.500000 0.160558
-109.500000 0.143079
-108.500000 0.125009
-107.500000 0.106606
-106.500000 0.123968
-105.500000 0.213853
-104.500000 0.212962
-103.500000 0.053053
-102.500000 0.124675
-101.500000 0.159055
-100.500000 0.124435
-99.500000 0.142686
-98.500000 0.229819
-97.500000 0.195801
-96.500000 0.141580
-95.500000 0.196442
-94.500000 0.231161
-93.500000 0.124325
-92.500000 0.088438
-91.500000 0.177237
-90.500000 0.195926
-89.500000 0.178122
-88.500000 0.160305
-87.500000 0.088923
-86.500000 0.196003
-85.500000 0.141762
-84.500000 0.107089
-83.500000 0.124171
-82.500000 0.124251
-81.500000 0.141566
-80.500000 0.160012
-79.500000 0.176767
-78.500000 0.231001
-77.500000 0.283268
-76.500000 0.141903
-75.500000 0.178738
-74.500000 0.141916
-73.500000 0.178442
-72.500000 0.229901
-71.500000 0.088352
-70.500000 0.160080
-69.500000 0.123668
-68.500000 0.142359
-67.500000 0.195799
-66.500000 0.124934
-65.500000 0.123792
-64.500000 0.105955
-63.500000 0.124264
-62.500000 0.177045
-61.500000 0.159212
-60.500000 0.141347
-59.500000 0.266480
-58.500000 0.194783
-57.500000 0.267369
-56.500000 0.123652
-55.500000 0.142302
-54.500000 0.176936
-53.500000 0.106138
-52.500000 0.141201
-51.500000 0.124559
-50.500000 0.142086
-49.500000 0.141836
-48.500000 0.213553
-47.500000 0.106557
-46.500000 0.176880
-45.500000 0.141790
-44.500000 0.213064
-43.500000 0.213707
-42.500000 0.053440
-41.500000 0.106347
-40.500000 0.053858
-39.500000 0.194813
-38.500000 0.089157
-37.500000 0.142133
-36.500000 0.124808
-35.500000 0.159563
-34.500000 0.106692
-33.500000 0.212056
-32.500000 0.194260
-31.500000 0.212816
-30.500000 0.035468
-29.500000 0.142221
-28.500000 0.106632
-27.500000 0.106812
-26.500000 0.106498
-25.500000 0.211690
-24.500000 0.159573
-23.500000 0.177508
-22.500000 0.159240
-21.500000 0.107245
-20.500000 0.177104
-19.500000 0.125495
-18.500000 0.088606
-17.500000 0.124066
-16.500000 0.158719
-15.500000 0.159416
-14.500000 0.088442
-13.500000 0.229761
-12.500000 0.070748
-11.500000 0.178140
-10.500000 0.265792
-9.500000 0.089429
-8.500000 0.106004
-7.500000 0.106856
-6.500000 0.212859
-5.500000 0.123745
-4.500000 0.249671
-3.500000 0.124853
-2.500000 0.319719
-1.500000 0.249300
-0.500000 0.318048
0.500000 0.319138
1.500000 0.285334
2.500000 0.407127
3.500000 0.498260
4.500000 0.604851
5.500000 0.778780
6.500000 0.714237
7.500000 1.000000
8.500000 0.730431
9.500000 0.747679
10.500000 0.762883
11.500000 0.601261
12.500000 0.338441
13.500000 0.710983
14.500000 0.496095
15.500000 0.355598
16.500000 0.338426
17.500000 0.497183
18.500000 0.408855
19.500000 0.249762
20.500000 0.372080
21.500000 0.249405
22.500000 0.338150
23.500000 0.195618
24.500000 0.265545
25.500000 0.195642
26.500000 0.195836
27.500000 0.352339
28.500000 0.230047
29.500000 0.196103
30.500000 0.266378
31.500000 0.301059
32.500000 0.196243
33.500000 0.229969
34.500000 0.176959
35.500000 0.229671
36.500000 0.124729
37.500000 0.195813
38.500000 0.195262
39.500000 0.246921
40.500000 0.159838
41.500000 0.249715
42.500000 0.212220
43.500000 0.212297
44.500000 0.231065
45.500000 0.124451
46.500000 0.247603
47.500000 0.142422
48.500000 0.106897
49.500000 0.105866
50.500000 0.230592
51.500000 0.213459
52.500000 0.229621
53.500000 0.123227
54.500000 0.195927
55.500000 0.194555
56.500000 0.088539
57.500000 0.354853
58.500000 0.231009
59.500000 0.105963
60.500000 0.124328
61.500000 0.176122
62.500000 0.176994
63.500000 0.160135
64.500000 0.089145
65.500000 0.178078
66.500000 0.124575
67.500000 0.177395
68.500000 0.142449
69.500000 0.250036
70.500000 0.195422
71.500000 0.088917
72.500000 0.211684
73.500000 0.124615
74.500000 0.124768
75.500000 0.124046
76.500000 0.213120
77.500000 0.141383
78.500000 0.248971
79.500000 0.070898
80.500000 0.231264
81.500000 0.265883
82.500000 0.176279
83.500000 0.177037
84.500000 0.230481
85.500000 0.124431
86.500000 0.195533
87.500000 0.249301
88.500000 0.124541
89.500000 0.213517
90.500000 0.179256
91.500000 0.106927
92.500000 0.124310
93.500000 0.124772
94.500000 0.212424
95.500000 0.141646
96.500000 0.106371
97.500000 0.195757
98.500000 0.267365
99.500000 0.142315
100.500000 0.159982
101.500000 0.123992
102.500000 0.142721
103.500000 0.196473
104.500000 0.141727
105.500000 0.089176
106.500000 0.142100
107.500000 0.159715
108.500000 0.106466
109.500000 0.176924
110.500000 0.106741
111.500000 0.213752
112.500000 0.213287
113.500000 0.070916
114.500000 0.106161
115.500000 0.106790
116.500000 0.159118
117.500000 0.089150
118.500000 0.176470
119.500000 0.106785
120.500000 0.213298
121.500000 0.124254
122.500000 0.248670
123.500000 0.282680
124.500000 0.107160
125.500000 0.089253
126.500000 0.195915
127.500000 0.089016
128.500000 0.088918
129.500000 0.159741
130.500000 0.035446
131.500000 0.178087
132.500000 0.176104
133.500000 0.195887
134.500000 0.159466
135.500000 0.231486
136.500000 0.248130
137.500000 0.089145
138.500000 0.141948
139.500000 0.195558
140.500000 0.178992
141.500000 0.089310
142.500000 0.106797
143.500000 0.125050
144.500000 0.196748
145.500000 0.159622
146.500000 0.124975
147.500000 0.159638
148.500000 0.088894
149.500000 0.159582
150.500000 0.107340
151.500000 0.107088
152.500000 0.194346
153.500000 0.213766
154.500000 0.123611
155.500000 0.267160
156.500000 0.106692
157.500000 0.106887
158.500000 0.124241
159.500000 0.141408
160.500000 0.106966
161.500000 0.213336
162.500000 0.124741
163.500000 0.088890
164.500000 0.212657
165.500000 0.089061
166.500000 0.125026
167.500000 0.213506
168.500000 0.179321
169.500000 0.249669
170.500000 0.159730
171.500000 0.232497
172.500000 0.230809
173.500000 0.141724
174.500000 0.106729
175.500000 0.124800
176.500000 0.106535
177.500000 0.213438
178.500000 0.105922
179.500000 0.124611
180.500000 0.124463
181.500000 0.177490
182.500000 0.230561
183.500000 0.089119
184.500000 0.211887
185.500000 0.106622
186.500000 0.161132
187.500000 0.248584
188.500000 0.053073
189.500000 0.196260
190.500000 0.177907
191.500000 0.266808
192.500000 0.212116
193.500000 0.106511
194.500000 0.106522
195.500000 0.142093
196.500000 0.161201
197.500000 0.124639
198.500000 0.106741
199.500000 0.053188
200.500000 0.160670
201.500000 0.142475
202.500000 0.053134
203.500000 0.195350
204.500000 0.160886
205.500000 0.125970
206.500000 0.142883
207.500000 0.159646
208.500000 0.177383
209.500000 0.107155
210.500000 0.071662
211.500000 0.159254
212.500000 0.230043
213.500000 0.053371
214.500000 0.142963
215.500000 0.159587
216.500000 0.141564
217.500000 0.230885
218.500000 0.232053
219.500000 0.142738
220.500000 0.106682
221.500000 0.141756
222.500000 0.106724
223.500000 0.195030
224.500000 0.107118
225.500000 0.230061
226.500000 0.107774
227.500000 0.214034
228.500000 0.124404
229.500000 0.088822
230.500000 0.141927
231.500000 0.195846
232.500000 0.071545
233.500000 0.248705
234.500000 0.196901
235.500000 0.071088
236.500000 0.107273
237.500000 0.142502
238.500000 0.160776
239.500000 0.142663
240.500000 0.125056
241.500000 0.124047
242.500000 0.144214
243.500000 0.249995
244.500000 0.178193
245.500000 0.178423
246.500000 0.196074
247.500000 0.143129
248.500000 0.248804
249.500000 0.159809
250.500000 0.106658
251.500000 0.143406
252.500000 0.214727
253.500000 0.071250
254.500000 0.125127
255.500000 0.232127
256.500000 0.107053
257.500000 0.089352
258.500000 0.124359
259.500000 0.089806
260.500000 0.213070
261.500000 0.231094
262.500000 0.107428
263.500000 0.107674
264.500000 0.177572
265.500000 0.106354
266.500000 0.250018
267.500000 0.071732
268.500000 0.230982
269.500000 0.106879
270.500000 0.266446
271.500000 0.143596
272.500000 0.106897
273.500000 0.287667
274.500000 0.177396
275.500000 0.230378
276.500000 0.197814
277.500000 0.196162
278.500000 0.107325
279.500000 0.177709
280.500000 0.160753
281.500000 0.250121
282.500000 0.142977
283.500000 0.089737
284.500000 0.142926
285.500000 0.089445
286.500000 0.162323
287.500000 0.143674
288.500000 0.071126
289.500000 0.107256
290.500000 0.107545
291.500000 0.215681
292.500000 0.234160
293.500000 0.214380
294.500000 0.159901
295.500000 0.142139
296.500000 0.250950
297.500000 0.213577
298.500000 0.197660
299.500000 0.178212
