# Left column = Time after Trigger in seconds & Right column = # Counts / Exposure = Flux per cm² s
-299.500000 0.110212
-298.500000 0.152479
-297.500000 0.207257
-296.500000 0.248169
-295.500000 0.151500
-294.500000 0.123808
-293.500000 0.179608
-292.500000 0.124650
-291.500000 0.194116
-290.500000 0.124111
-289.500000 0.109227
-288.500000 0.110379
-287.500000 0.275677
-286.500000 0.194921
-285.500000 0.151226
-284.500000 0.318427
-283.500000 0.234865
-282.500000 0.177957
-281.500000 0.137365
-280.500000 0.291772
-279.500000 0.165508
-278.500000 0.288346
-277.500000 0.221009
-276.500000 0.123994
-275.500000 0.193766
-274.500000 0.178719
-273.500000 0.178307
-272.500000 0.248894
-271.500000 0.178716
-270.500000 0.164546
-269.500000 0.179094
-268.500000 0.110124
-267.500000 0.221310
-266.500000 0.152119
-265.500000 0.192385
-264.500000 0.096732
-263.500000 0.234445
-262.500000 0.221218
-261.500000 0.151352
-260.500000 0.082276
-259.500000 0.179429
-258.500000 0.124084
-257.500000 0.232894
-256.500000 0.179249
-255.500000 0.234814
-254.500000 0.195238
-253.500000 0.165283
-252.500000 0.137451
-251.500000 0.166214
-250.500000 0.262095
-249.500000 0.180518
-248.500000 0.123691
-247.500000 0.150342
-246.500000 0.193458
-245.500000 0.193183
-244.500000 0.165462
-243.500000 0.262367
-242.500000 0.123339
-241.500000 0.278107
-240.500000 0.137582
-239.500000 0.095995
-238.500000 0.219108
-237.500000 0.317679
-236.500000 0.190933
-235.500000 0.164991
-234.500000 0.150290
-233.500000 0.108996
-232.500000 0.150404
-231.500000 0.289104
-230.500000 0.273554
-229.500000 0.152278
-228.500000 0.193104
-227.500000 0.096718
-226.500000 0.234433
-225.500000 0.220219
-224.500000 0.124528
-223.500000 0.164486
-222.500000 0.220719
-221.500000 0.204442
-220.500000 0.206002
-219.500000 0.218447
-218.500000 0.191039
-217.500000 0.217821
-216.500000 0.178653
-215.500000 0.274924
-214.500000 0.235036
-213.500000 0.191863
-212.500000 0.178484
-211.500000 0.234285
-210.500000 0.192186
-209.500000 0.110076
-208.500000 0.150918
-207.500000 0.137765
-206.500000 0.287021
-205.500000 0.221337
-204.500000 0.274121
-203.500000 0.152189
-202.500000 0.176449
-201.500000 0.232873
-200.500000 0.207081
-199.500000 0.150710
-198.500000 0.165968
-197.500000 0.221077
-196.500000 0.274133
-195.500000 0.149976
-194.500000 0.151323
-193.500000 0.192151
-192.500000 0.136358
-191.500000 0.179189
-190.500000 0.150857
-189.500000 0.246404
-188.500000 0.150168
-187.500000 0.164931
-186.500000 0.205287
-185.500000 0.150501
-184.500000 0.151124
-183.500000 0.232833
-182.500000 0.178013
-181.500000 0.137273
-180.500000 0.179271
-179.500000 0.109315
-178.500000 0.109781
-177.500000 0.261091
-176.500000 0.067905
-175.500000 0.150504
-174.500000 0.123101
-173.500000 0.164960
-172.500000 0.136489
-171.500000 0.164749
-170.500000 0.151203
-169.500000 0.095123
-168.500000 0.218293
-167.500000 0.287699
-166.500000 0.094942
-165.500000 0.177358
-164.500000 0.123093
-163.500000 0.123121
-162.500000 0.164514
-161.500000 0.286753
-160.500000 0.162901
-159.500000 0.135991
-158.500000 0.203900
-157.500000 0.164364
-156.500000 0.176034
-155.500000 0.162827
-154.500000 0.177100
-153.500000 0.190015
-152.500000 0.135623
-151.500000 0.217990
-150.500000 0.204950
-149.500000 0.094931
-148.500000 0.149425
-147.500000 0.178586
-146.500000 0.164339
-145.500000 0.094778
-144.500000 0.081616
-143.500000 0.271776
-142.500000 0.150227
-141.500000 0.205708
-140.500000 0.190778
-139.500000 0.123284
-138.500000 0.163056
-137.500000 0.150094
-136.500000 0.122010
-135.500000 0.231268
-134.500000 0.192514
-133.500000 0.162093
-132.500000 0.162660
-131.500000 0.176961
-130.500000 0.233086
-129.500000 0.163441
-128.500000 0.108006
-127.500000 0.177229
-126.500000 0.135471
-125.500000 0.095128
-124.500000 0.162611
-123.500000 0.163839
-122.500000 0.220059
-121.500000 0.231629
-120.500000 0.203294
-119.500000 0.122948
-118.500000 0.232418
-117.500000 0.149508
-116.500000 0.108762
-115.500000 0.189770
-114.500000 0.150332
-113.500000 0.148240
-112.500000 0.150053
-111.500000 0.177961
-110.500000 0.189452
-109.500000 0.189872
-108.500000 0.121660
-107.500000 0.176899
-106.500000 0.176741
-105.500000 0.121944
-104.500000 0.137022
-103.500000 0.163654
-102.500000 0.163176
-101.500000 0.122861
-100.500000 0.121833
-99.500000 0.218159
-98.500000 0.190560
-97.500000 0.175865
-96.500000 0.231040
-95.500000 0.215483
-94.500000 0.177023
-93.500000 0.189318
-92.500000 0.108864
-91.500000 0.257420
-90.500000 0.230658
-89.500000 0.201856
-88.500000 0.160420
-87.500000 0.080973
-86.500000 0.215665
-85.500000 0.161538
-84.500000 0.176381
-83.500000 0.259359
-82.500000 0.190372
-81.500000 0.148154
-80.500000 0.189398
-79.500000 0.161843
-78.500000 0.135860
-77.500000 0.135870
-76.500000 0.174494
-75.500000 0.135855
-74.500000 0.135124
-73.500000 0.160988
-72.500000 0.108013
-71.500000 0.311702
-70.500000 0.215418
-69.500000 0.147663
-68.500000 0.285511
-67.500000 0.175672
-66.500000 0.270278
-65.500000 0.163251
-64.500000 0.120666
-63.500000 0.160759
-62.500000 0.189286
-61.500000 0.175296
-60.500000 0.136074
-59.500000 0.227821
-58.500000 0.174650
-57.500000 0.107718
-56.500000 0.174515
-55.500000 0.189675
-54.500000 0.200654
-53.500000 0.134196
-52.500000 0.175371
-51.500000 0.253975
-50.500000 0.309595
-49.500000 0.174770
-48.500000 0.227559
-47.500000 0.270501
-46.500000 0.202156
-45.500000 0.107558
-44.500000 0.323289
-43.500000 0.241354
-42.500000 0.174186
-41.500000 0.201348
-40.500000 0.188011
-39.500000 0.174423
-38.500000 0.120801
-37.500000 0.335125
-36.500000 0.161220
-35.500000 0.135687
-34.500000 0.200213
-33.500000 0.147062
-32.500000 0.188497
-31.500000 0.133476
-30.500000 0.173921
-29.500000 0.306703
-28.500000 0.120594
-27.500000 0.120638
-26.500000 0.227204
-25.500000 0.120563
-24.500000 0.161022
-23.500000 0.186565
-22.500000 0.107299
-21.500000 0.159576
-20.500000 0.147509
-19.500000 0.106585
-18.500000 0.093353
-17.500000 0.053383
-16.500000 0.213770
-15.500000 0.227343
-14.500000 0.133161
-13.500000 0.187421
-12.500000 0.214085
-11.500000 0.266555
-10.500000 0.146981
-9.500000 0.227132
-8.500000 0.266088
-7.500000 0.187033
-6.500000 0.309614
-5.500000 0.357666
-4.500000 0.147023
-3.500000 0.173650
-2.500000 0.161275
-1.500000 0.133497
-0.500000 0.132599
0.500000 0.173741
1.500000 0.200136
2.500000 0.239419
3.500000 0.228821
4.500000 0.242305
5.500000 0.264984
6.500000 0.279140
7.500000 0.345524
8.500000 0.509524
9.500000 0.914957
10.500000 1.000000
11.500000 0.714962
12.500000 0.907874
13.500000 0.881199
14.500000 0.724086
15.500000 0.722108
16.500000 0.601119
17.500000 0.706124
18.500000 0.464950
19.500000 0.600974
20.500000 0.561658
21.500000 0.485170
22.500000 0.439255
23.500000 0.358316
24.500000 0.424093
25.500000 0.347484
26.500000 0.252880
27.500000 0.385490
28.500000 0.290936
29.500000 0.159324
30.500000 0.491417
31.500000 0.238766
32.500000 0.330675
33.500000 0.172474
34.500000 0.184366
35.500000 0.173020
36.500000 0.212486
37.500000 0.346977
38.500000 0.211223
39.500000 0.226129
40.500000 0.212427
41.500000 0.198733
42.500000 0.266791
43.500000 0.277497
44.500000 0.264545
45.500000 0.159789
46.500000 0.210910
47.500000 0.227075
48.500000 0.198706
49.500000 0.185325
50.500000 0.132335
51.500000 0.225086
52.500000 0.105352
53.500000 0.252854
54.500000 0.132514
55.500000 0.171575
56.500000 0.172923
57.500000 0.185241
58.500000 0.159348
59.500000 0.211744
60.500000 0.105673
61.500000 0.238883
62.500000 0.210349
63.500000 0.198391
64.500000 0.224080
65.500000 0.236866
66.500000 0.171434
67.500000 0.118693
68.500000 0.211183
69.500000 0.184829
70.500000 0.222670
71.500000 0.159535
72.500000 0.158519
73.500000 0.210302
74.500000 0.183752
75.500000 0.132007
76.500000 0.170216
77.500000 0.144573
78.500000 0.196670
79.500000 0.143803
80.500000 0.145112
81.500000 0.157259
82.500000 0.183066
83.500000 0.091722
84.500000 0.131830
85.500000 0.052442
86.500000 0.196383
87.500000 0.157638
88.500000 0.145008
89.500000 0.171383
90.500000 0.276291
91.500000 0.249076
92.500000 0.170082
93.500000 0.170225
94.500000 0.208885
95.500000 0.249297
96.500000 0.130975
97.500000 0.143869
98.500000 0.092567
99.500000 0.117736
100.500000 0.181831
101.500000 0.196173
102.500000 0.182931
103.500000 0.104658
104.500000 0.157703
105.500000 0.130511
106.500000 0.250607
107.500000 0.143922
108.500000 0.196782
109.500000 0.234778
110.500000 0.195097
111.500000 0.117291
112.500000 0.143610
113.500000 0.143584
114.500000 0.065840
115.500000 0.143706
116.500000 0.130200
117.500000 0.210682
118.500000 0.143506
119.500000 0.065454
120.500000 0.130125
121.500000 0.157062
122.500000 0.156544
123.500000 0.117257
124.500000 0.143955
125.500000 0.130338
126.500000 0.195286
127.500000 0.105198
128.500000 0.116909
129.500000 0.222132
130.500000 0.144414
131.500000 0.156551
132.500000 0.234331
133.500000 0.196238
134.500000 0.260787
135.500000 0.351832
136.500000 0.208765
137.500000 0.156903
138.500000 0.156464
139.500000 0.196199
140.500000 0.182862
141.500000 0.169211
142.500000 0.117019
143.500000 0.078058
144.500000 0.091529
145.500000 0.130213
146.500000 0.142703
147.500000 0.104780
148.500000 0.130835
149.500000 0.182571
150.500000 0.183431
151.500000 0.157207
152.500000 0.195936
153.500000 0.196278
154.500000 0.077892
155.500000 0.182572
156.500000 0.117163
157.500000 0.182747
158.500000 0.130295
159.500000 0.182810
160.500000 0.168983
161.500000 0.208228
162.500000 0.142980
163.500000 0.208053
164.500000 0.130021
165.500000 0.169206
166.500000 0.051572
167.500000 0.130428
168.500000 0.155826
169.500000 0.065060
170.500000 0.182461
171.500000 0.260112
172.500000 0.116924
173.500000 0.170004
174.500000 0.182723
175.500000 0.155518
176.500000 0.181201
177.500000 0.142677
178.500000 0.286444
179.500000 0.142675
180.500000 0.142606
181.500000 0.064894
182.500000 0.156776
183.500000 0.154701
184.500000 0.249043
185.500000 0.155017
186.500000 0.103571
187.500000 0.090661
188.500000 0.130134
189.500000 0.169333
190.500000 0.156520
191.500000 0.154938
192.500000 0.103990
193.500000 0.129317
194.500000 0.143093
195.500000 0.310473
196.500000 0.193655
197.500000 0.168303
198.500000 0.167838
199.500000 0.115927
200.500000 0.117274
201.500000 0.154094
202.500000 0.195318
203.500000 0.065057
204.500000 0.207474
205.500000 0.167710
206.500000 0.143500
207.500000 0.195030
208.500000 0.116616
209.500000 0.129800
210.500000 0.220002
211.500000 0.181014
212.500000 0.168347
213.500000 0.168524
214.500000 0.129643
215.500000 0.232238
216.500000 0.102891
217.500000 0.090214
218.500000 0.205770
219.500000 0.129307
220.500000 0.078158
221.500000 0.193343
222.500000 0.182155
223.500000 0.207472
224.500000 0.129375
225.500000 0.115355
226.500000 0.283575
227.500000 0.129365
228.500000 0.221180
229.500000 0.141766
230.500000 0.129254
231.500000 0.116365
232.500000 0.154908
233.500000 0.167424
234.500000 0.128960
235.500000 0.128845
236.500000 0.155595
237.500000 0.155223
238.500000 0.141213
239.500000 0.128510
240.500000 0.141957
241.500000 0.166784
242.500000 0.167572
243.500000 0.116382
244.500000 0.116031
245.500000 0.089974
246.500000 0.103168
247.500000 0.064597
248.500000 0.129520
249.500000 0.090467
250.500000 0.169449
251.500000 0.141382
252.500000 0.142169
253.500000 0.103136
254.500000 0.193404
255.500000 0.129296
256.500000 0.102991
257.500000 0.089934
258.500000 0.155617
259.500000 0.206066
260.500000 0.116331
261.500000 0.128805
262.500000 0.141922
263.500000 0.142099
264.500000 0.115653
265.500000 0.090861
266.500000 0.129305
267.500000 0.142753
268.500000 0.090067
269.500000 0.142391
270.500000 0.090676
271.500000 0.116291
272.500000 0.102938
273.500000 0.129522
274.500000 0.103569
275.500000 0.180658
276.500000 0.128832
277.500000 0.115821
278.500000 0.179827
279.500000 0.128734
280.500000 0.115229
281.500000 0.116317
282.500000 0.116240
283.500000 0.154186
284.500000 0.128180
285.500000 0.128492
286.500000 0.140899
287.500000 0.179446
288.500000 0.102605
289.500000 0.051448
290.500000 0.128156
291.500000 0.090401
292.500000 0.141718
293.500000 0.076901
294.500000 0.090350
295.500000 0.180439
296.500000 0.064437
297.500000 0.165870
298.500000 0.140953
299.500000 0.102673
