# Left column = Time after Trigger in seconds & Right column = # Counts / Exposure = Flux per cm² s
700.000000 17.210423
701.000000 16.212879
702.000000 14.980897
703.000000 26.547335
704.000000 21.897150
705.000000 14.921533
706.000000 13.918061
707.000000 11.398893
708.000000 16.018795
709.000000 18.308228
710.000000 14.934347
711.000000 14.789918
712.000000 21.891512
713.000000 24.003453
714.000000 11.471378
715.000000 11.422256
716.000000 11.467844
717.000000 18.428507
718.000000 13.798229
719.000000 14.928121
720.000000 11.395795
721.000000 12.636007
722.000000 13.710508
723.000000 18.246893
724.000000 14.874585
725.000000 15.953699
726.000000 21.688905
727.000000 10.310901
728.000000 17.131927
729.000000 16.006532
730.000000 19.250538
731.000000 16.029886
732.000000 15.954053
733.000000 20.604559
734.000000 14.776786
735.000000 21.651497
736.000000 10.235787
737.000000 13.714223
738.000000 14.785832
739.000000 10.213941
740.000000 12.717917
741.000000 17.100083
742.000000 15.955683
743.000000 6.833171
744.000000 12.466949
745.000000 14.842222
746.000000 18.139477
747.000000 19.528734
748.000000 17.094287
749.000000 22.617866
750.000000 13.747581
751.000000 15.879753
752.000000 14.758301
753.000000 7.919014
754.000000 18.227502
755.000000 23.824293
756.000000 9.040158
757.000000 19.217362
758.000000 7.945460
759.000000 12.535430
760.000000 7.957568
761.000000 6.797989
762.000000 11.316247
763.000000 9.150747
764.000000 15.854651
765.000000 18.079897
766.000000 12.487190
767.000000 11.425815
768.000000 14.701464
769.000000 5.687512
770.000000 20.553218
771.000000 17.068703
772.000000 17.127434
773.000000 13.625978
774.000000 12.456250
775.000000 19.103981
776.000000 15.875662
777.000000 9.062935
778.000000 16.957452
779.000000 14.736413
780.000000 16.924783
781.000000 12.518106
782.000000 18.165930
783.000000 7.943601
784.000000 18.104228
785.000000 11.292843
786.000000 17.991583
787.000000 9.060336
788.000000 19.223678
789.000000 14.771629
790.000000 18.038398
791.000000 12.420199
792.000000 14.702832
793.000000 7.908015
794.000000 14.621594
795.000000 15.684415
796.000000 12.338279
797.000000 20.431075
798.000000 17.926799
799.000000 12.321729
800.000000 5.656302
801.000000 15.772922
802.000000 7.848484
803.000000 15.900260
804.000000 16.975078
805.000000 13.463442
806.000000 13.638224
807.000000 9.083396
808.000000 13.488188
809.000000 9.010546
810.000000 19.076630
811.000000 15.756999
812.000000 16.897769
813.000000 11.247496
814.000000 13.548463
815.000000 14.579482
816.000000 16.964494
817.000000 20.177045
818.000000 19.134013
819.000000 11.229176
820.000000 12.450963
821.000000 13.577495
822.000000 17.925561
823.000000 22.608136
824.000000 18.026549
825.000000 23.804216
826.000000 11.195713
827.000000 12.359416
828.000000 16.830105
829.000000 16.800519
830.000000 21.371032
831.000000 15.763667
832.000000 17.004728
833.000000 7.892594
834.000000 10.049068
835.000000 19.030499
836.000000 13.462578
837.000000 22.340409
838.000000 22.437970
839.000000 16.825990
840.000000 19.063985
841.000000 18.941018
842.000000 13.311093
843.000000 21.218715
844.000000 14.591300
845.000000 4.490371
846.000000 14.468050
847.000000 21.380046
848.000000 14.469005
849.000000 17.901503
850.000000 10.052322
851.000000 15.657981
852.000000 15.617189
853.000000 11.093081
854.000000 20.293845
855.000000 17.905754
856.000000 13.309929
857.000000 14.525718
858.000000 12.325873
859.000000 18.024486
860.000000 21.277485
861.000000 15.656795
862.000000 12.333573
863.000000 8.948497
864.000000 17.814538
865.000000 11.184407
866.000000 15.633971
867.000000 12.320803
868.000000 19.036964
869.000000 14.594942
870.000000 8.895422
871.000000 15.565885
872.000000 22.249408
873.000000 19.993440
874.000000 15.738547
875.000000 12.202792
876.000000 14.484136
877.000000 14.514770
878.000000 13.495239
879.000000 13.461171
880.000000 13.408248
881.000000 19.094288
882.000000 15.502436
883.000000 13.402859
884.000000 15.622419
885.000000 20.244302
886.000000 18.884486
887.000000 13.375647
888.000000 11.159435
889.000000 18.944848
890.000000 22.307599
891.000000 8.864652
892.000000 9.936838
893.000000 12.149238
894.000000 12.195705
895.000000 22.348928
896.000000 14.461963
897.000000 14.657219
898.000000 12.221501
899.000000 13.419643
900.000000 6.654022
901.000000 21.020878
902.000000 16.690194
903.000000 16.632958
904.000000 11.066232
905.000000 20.038352
906.000000 15.554331
907.000000 14.516290
908.000000 8.924378
909.000000 14.457806
910.000000 12.223076
911.000000 16.448982
912.000000 15.451148
913.000000 18.790234
914.000000 13.353034
915.000000 19.032833
916.000000 8.882682
917.000000 11.165279
918.000000 13.415144
919.000000 17.710909
920.000000 17.650063
921.000000 12.257359
922.000000 15.690814
923.000000 18.881527
924.000000 12.135497
925.000000 8.864947
926.000000 12.158547
927.000000 7.744552
928.000000 18.664694
929.000000 14.493520
930.000000 13.142303
931.000000 11.052843
932.000000 12.167781
933.000000 12.183197
934.000000 15.644119
935.000000 15.565323
936.000000 15.430136
937.000000 23.272486
938.000000 7.815530
939.000000 14.345795
940.000000 13.387176
941.000000 15.502460
942.000000 12.151676
943.000000 11.001338
944.000000 18.939389
945.000000 14.295645
946.000000 9.999053
947.000000 8.873049
948.000000 16.504387
949.000000 14.352907
950.000000 13.371867
951.000000 17.685734
952.000000 8.833155
953.000000 15.471933
954.000000 6.668848
955.000000 14.229930
956.000000 11.051033
957.000000 5.560354
958.000000 15.503208
959.000000 9.911419
960.000000 15.627889
961.000000 15.565404
962.000000 10.016543
963.000000 8.869832
964.000000 18.657625
965.000000 7.737997
966.000000 12.173086
967.000000 16.586895
968.000000 14.301404
969.000000 10.999949
970.000000 15.413280
971.000000 15.413538
972.000000 9.922877
973.000000 16.541455
974.000000 14.378537
975.000000 20.981262
976.000000 15.486235
977.000000 17.727386
978.000000 9.901373
979.000000 5.476929
980.000000 12.110238
981.000000 13.180981
982.000000 17.697001
983.000000 15.403621
984.000000 17.734892
985.000000 15.448015
986.000000 14.291118
987.000000 11.048283
988.000000 18.683605
989.000000 10.970332
990.000000 14.230646
991.000000 11.017653
992.000000 15.380809
993.000000 12.094773
994.000000 17.646555
995.000000 8.737342
996.000000 11.009040
997.000000 12.143740
998.000000 14.273355
999.000000 22.071082
1000.000000 46.033133
1001.000000 25.287304
1002.000000 26.423186
1003.000000 11.008506
1004.000000 13.149956
1005.000000 12.114623
1006.000000 14.228891
1007.000000 15.376902
1008.000000 9.874312
1009.000000 19.763199
1010.000000 17.508531
1011.000000 8.837114
1012.000000 10.937515
1013.000000 17.529155
1014.000000 14.283240
1015.000000 18.748873
1016.000000 12.041277
1017.000000 17.470033
1018.000000 17.486699
1019.000000 13.203603
1020.000000 21.954086
1021.000000 13.074469
1022.000000 12.046138
1023.000000 11.989478
1024.000000 14.228487
1025.000000 11.982766
1026.000000 9.864158
1027.000000 13.140082
1028.000000 19.627645
1029.000000 6.545234
1030.000000 19.677796
1031.000000 9.835838
1032.000000 12.960685
1033.000000 12.087491
1034.000000 17.545732
1035.000000 14.229946
1036.000000 17.521742
1037.000000 19.675439
1038.000000 16.440464
1039.000000 13.090669
1040.000000 16.407286
1041.000000 15.298487
1042.000000 8.726041
1043.000000 14.152701
1044.000000 10.950260
1045.000000 13.099988
1046.000000 14.292155
1047.000000 9.808849
1048.000000 17.606276
1049.000000 19.598218
1050.000000 8.740275
1051.000000 10.930417
1052.000000 16.285482
1053.000000 14.135977
1054.000000 12.991700
1055.000000 12.048777
1056.000000 6.536443
1057.000000 11.987546
1058.000000 14.105566
1059.000000 10.875447
1060.000000 9.807978
1061.000000 14.162787
1062.000000 16.245390
1063.000000 10.930855
1064.000000 14.011144
1065.000000 16.221032
1066.000000 10.924080
1067.000000 12.057571
1068.000000 17.419100
1069.000000 11.982773
1070.000000 14.097149
1071.000000 5.427194
1072.000000 13.157840
1073.000000 14.101651
1074.000000 8.705982
1075.000000 7.605225
1076.000000 13.039519
1077.000000 13.025671
1078.000000 13.127515
1079.000000 17.342040
1080.000000 8.629269
1081.000000 31.853238
1082.000000 8.637280
1083.000000 12.992610
1084.000000 8.683373
1085.000000 8.702184
1086.000000 17.360327
1087.000000 13.051219
1088.000000 4.327779
1089.000000 8.673077
1090.000000 6.554311
1091.000000 14.122077
1092.000000 13.076666
1093.000000 6.553452
1094.000000 11.887213
1095.000000 11.932804
1096.000000 17.398789
1097.000000 12.044381
1098.000000 9.830104
1099.000000 17.388181
1100.000000 16.346548
1101.000000 10.964430
1102.000000 13.011542
1103.000000 14.242797
1104.000000 16.382907
1105.000000 6.512139
1106.000000 13.108140
1107.000000 6.509000
1108.000000 21.703704
1109.000000 9.729164
1110.000000 8.730287
1111.000000 17.462950
1112.000000 10.874783
1113.000000 10.796004
1114.000000 7.641001
1115.000000 15.158295
1116.000000 13.132140
1117.000000 11.936198
1118.000000 9.822425
1119.000000 10.834100
1120.000000 6.567288
1121.000000 14.182652
1122.000000 11.916216
1123.000000 4.368888
1124.000000 8.706408
1125.000000 11.992677
1126.000000 8.706405
1127.000000 6.522804
1128.000000 11.986899
1129.000000 7.668161
1130.000000 5.463011
1131.000000 2.185240
1132.000000 7.600828
1133.000000 10.920056
1134.000000 11.973999
1135.000000 7.653003
1136.000000 6.565854
1137.000000 9.824464
1138.000000 11.944081
1139.000000 9.791266
1140.000000 9.830313
1141.000000 9.904699
1142.000000 6.613964
1143.000000 6.560585
1144.000000 7.649253
1145.000000 6.546978
1146.000000 6.519141
1147.000000 13.186205
1148.000000 10.909076
1149.000000 8.750124
1150.000000 8.700425
1151.000000 4.390146
1152.000000 3.266079
1153.000000 11.903203
1154.000000 9.780046
1155.000000 7.644100
1156.000000 7.646500
1157.000000 10.881717
1158.000000 12.028267
1159.000000 3.290419
1160.000000 8.699326
1161.000000 5.460483
1162.000000 4.377266
1163.000000 8.729080
1164.000000 7.707950
1165.000000 10.921223
1166.000000 11.966095
1167.000000 6.586032
1168.000000 0.000000
1169.000000 7.618948
1170.000000 8.761568
1171.000000 7.643807
1172.000000 8.744498
1173.000000 8.718197
1174.000000 6.600256
1175.000000 4.371616
1176.000000 6.556449
1177.000000 4.347782
1178.000000 7.601821
1179.000000 2.172274
1180.000000 6.561058
1181.000000 7.712313
1182.000000 4.366797
1183.000000 3.274966
1184.000000 7.672656
1185.000000 7.619202
1186.000000 7.665042
1187.000000 7.655879
1188.000000 0.000000
1189.000000 0.000000
1190.000000 0.000000
1191.000000 0.000000
1192.000000 0.000000
1193.000000 0.000000
1194.000000 0.000000
1195.000000 0.000000
1196.000000 0.000000
1197.000000 0.000000
1198.000000 0.000000
1199.000000 0.000000
1200.000000 0.000000
1201.000000 0.000000
1202.000000 0.000000
1203.000000 0.000000
1204.000000 0.000000
1205.000000 0.000000
1206.000000 0.000000
1207.000000 0.000000
1208.000000 0.000000
1209.000000 0.000000
1210.000000 0.000000
1211.000000 0.000000
1212.000000 0.000000
1213.000000 0.000000
1214.000000 0.000000
1215.000000 0.000000
1216.000000 0.000000
1217.000000 0.000000
1218.000000 0.000000
1219.000000 0.000000
1220.000000 0.000000
1221.000000 0.000000
1222.000000 0.000000
1223.000000 0.000000
1224.000000 0.000000
1225.000000 0.000000
1226.000000 0.000000
1227.000000 0.000000
1228.000000 0.000000
1229.000000 0.000000
1230.000000 0.000000
1231.000000 0.000000
1232.000000 0.000000
1233.000000 0.000000
1234.000000 0.000000
1235.000000 0.000000
1236.000000 0.000000
1237.000000 0.000000
1238.000000 0.000000
1239.000000 0.000000
1240.000000 0.000000
1241.000000 0.000000
1242.000000 0.000000
1243.000000 0.000000
1244.000000 0.000000
1245.000000 0.000000
1246.000000 0.000000
1247.000000 0.000000
1248.000000 0.000000
1249.000000 0.000000
1250.000000 0.000000
1251.000000 0.000000
1252.000000 0.000000
1253.000000 0.000000
1254.000000 0.000000
1255.000000 0.000000
1256.000000 0.000000
1257.000000 0.000000
1258.000000 0.000000
1259.000000 0.000000
1260.000000 0.000000
1261.000000 0.000000
1262.000000 0.000000
1263.000000 0.000000
1264.000000 0.000000
1265.000000 0.000000
1266.000000 0.000000
1267.000000 0.000000
1268.000000 0.000000
1269.000000 0.000000
1270.000000 0.000000
1271.000000 0.000000
1272.000000 0.000000
1273.000000 0.000000
1274.000000 0.000000
1275.000000 0.000000
1276.000000 0.000000
1277.000000 0.000000
1278.000000 0.000000
1279.000000 0.000000
1280.000000 0.000000
1281.000000 0.000000
1282.000000 0.000000
1283.000000 0.000000
1284.000000 0.000000
1285.000000 0.000000
1286.000000 0.000000
1287.000000 0.000000
1288.000000 0.000000
1289.000000 0.000000
1290.000000 0.000000
1291.000000 0.000000
1292.000000 0.000000
1293.000000 0.000000
1294.000000 0.000000
1295.000000 0.000000
1296.000000 0.000000
1297.000000 0.000000
1298.000000 0.000000
1299.000000 0.000000
